#Acq. time (s)=	3
#Accumulations=	2
#Range (nm)=	520...900
#Windows=	8
#Auto scanning=	Off
#Autofocus=	Off
#AutoExposure=	Off
#Spike filter=	Multiple accum.
#Delay time (s)=	0
#Binning=	1
#Readout mode=	Signal
#DeNoise=	Off
#ICS correction=	Off
#Dark correction=	Off
#Inst. Process=	Off
#Detector temperature (°C)=	-59.98
#Instrument=	LabRAM HR Evol
#Detector=	Syncerity OE
#Objective=	x50_VIS
#Grating=	600 (500nm)
#ND Filter=	10%
#Laser=	514nm_Edge
#Hole=	199.981
#Range=	Auto
#StageXY=	Marzhauser
#StageZ=	Marzhauser
#X (µm)=	0
#Y (µm)=	0
#Z (µm)=	0
#Full time(mm:ss)=	1:14
#Project=	
#Sample=	
#Site=	
#Title=	M1_270224
#Remark=	
#Date=	06.03.2024 10:10
#Acquired=	06.03.2024 10:10:46
520.044	22
520.097	22
520.149	30
520.201	26
520.254	20
520.306	26
520.359	34
520.411	28
520.464	20
520.516	20
520.569	22
520.621	20
520.674	28
520.726	26
520.778	26
520.831	28
520.883	16
520.936	32
520.988	28
521.041	26
521.093	24
521.146	28
521.198	26
521.25	20
521.303	30
521.355	30
521.408	32
521.46	24
521.513	22
521.565	26
521.617	28
521.67	30
521.722	26
521.775	22
521.827	32
521.88	26
521.932	28
521.984	24
522.037	34
522.089	18
522.142	26
522.194	26
522.247	26
522.299	22
522.352	26
522.404	22
522.456	28
522.509	34
522.561	24
522.614	22
522.666	32
522.719	26
522.771	32
522.823	24
522.876	26
522.928	24
522.981	26
523.033	28
523.086	28
523.138	22
523.19	28
523.243	22
523.295	24
523.348	24
523.4	26
523.453	22
523.505	30
523.557	24
523.61	32
523.662	22
523.715	32
523.767	26
523.82	30
523.872	26
523.924	24
523.977	18
524.029	34
524.082	24
524.134	26
524.186	26
524.239	28
524.291	22
524.344	28
524.396	20
524.449	24
524.501	20
524.553	34
524.606	30
524.658	24
524.711	26
524.763	28
524.815	24
524.868	24
524.92	22
524.973	26
525.025	26
525.078	24
525.13	28
525.182	26
525.235	30
525.287	20
525.34	18
525.392	30
525.444	28
525.497	16
525.549	22
525.602	24
525.654	32
525.706	24
525.759	26
525.811	24
525.864	30
525.916	16
525.969	28
526.021	16
526.073	22
526.126	24
526.178	24
526.231	26
526.283	34
526.335	20
526.388	24
526.44	24
526.493	32
526.545	26
526.597	24
526.65	28
526.702	34
526.755	26
526.807	32
526.859	24
526.912	32
526.964	24
527.017	28
527.069	30
527.121	28
527.174	18
527.226	26
527.279	16
527.331	26
527.383	22
527.436	20
527.488	26
527.54	30
527.593	22
527.645	38
527.698	20
527.75	26
527.802	22
527.855	24
527.907	24
527.96	28
528.012	26
528.064	34
528.117	20
528.169	36
528.222	22
528.274	26
528.326	22
528.379	38
528.431	18
528.484	26
528.536	22
528.588	26
528.641	26
528.693	16
528.745	20
528.798	22
528.85	22
528.903	26
528.955	26
529.007	28
529.06	36
529.112	30
529.164	18
529.217	28
529.269	26
529.322	26
529.374	24
529.426	20
529.479	26
529.531	22
529.584	34
529.636	28
529.688	26
529.741	22
529.793	26
529.845	30
529.898	22
529.95	24
530.003	20
530.055	28
530.107	30
530.16	22
530.212	26
530.264	30
530.317	28
530.369	30
530.422	30
530.474	22
530.526	32
530.579	20
530.631	32
530.683	22
530.736	34
530.788	16
530.841	24
530.893	28
530.945	32
530.998	26
531.05	26
531.102	24
531.155	26
531.207	20
531.259	32
531.312	20
531.364	28
531.417	26
531.469	30
531.521	20
531.574	26
531.626	20
531.678	30
531.731	18
531.783	28
531.835	26
531.888	20
531.94	24
531.992	18
532.045	28
532.097	26
532.15	22
532.202	30
532.254	28
532.307	22
532.359	26
532.411	34
532.464	20
532.516	28
532.568	22
532.621	30
532.673	34
532.726	24
532.778	20
532.83	26
532.883	28
532.935	36
532.987	30
533.04	30
533.092	34
533.144	28
533.197	22
533.249	34
533.301	30
533.354	26
533.406	26
533.458	28
533.511	28
533.563	24
533.615	20
533.668	28
533.72	26
533.773	18
533.825	26
533.877	26
533.93	28
533.982	28
534.034	30
534.087	34
534.139	34
534.191	26
534.244	28
534.296	32
534.348	30
534.401	28
534.453	24
534.505	20
534.558	38
534.61	26
534.662	30
534.715	34
534.767	26
534.819	32
534.872	34
534.924	32
534.976	38
535.029	28
535.081	36
535.133	26
535.186	38
535.238	28
535.29	28
535.343	32
535.395	36
535.447	36
535.5	36
535.552	22
535.604	24
535.657	30
535.709	38
535.761	24
535.814	38
535.866	32
535.918	30
535.971	22
536.023	40
536.075	32
536.128	34
536.18	26
536.232	32
536.285	30
536.337	24
536.389	30
536.442	32
536.494	28
536.546	32
536.599	28
536.651	32
536.703	34
536.755	28
536.808	28
536.86	36
536.912	26
536.965	20
537.017	34
537.069	24
537.122	24
537.174	32
537.226	28
537.279	28
537.331	38
537.383	22
537.436	30
537.488	20
537.54	32
537.593	30
537.645	32
537.697	22
537.75	28
537.802	26
537.854	30
537.906	28
537.959	26
538.011	32
538.063	32
538.116	30
538.168	32
538.22	30
538.273	34
538.325	34
538.377	28
538.43	28
538.482	24
538.534	26
538.586	24
538.639	22
538.691	30
538.743	34
538.796	30
538.848	26
538.9	30
538.953	28
539.005	28
539.057	28
539.109	32
539.162	32
539.214	36
539.266	32
539.319	28
539.371	26
539.423	30
539.476	24
539.528	30
539.58	26
539.633	36
539.685	20
539.737	40
539.789	20
539.842	38
539.894	34
539.946	34
539.999	28
540.051	32
540.103	36
540.155	34
540.208	24
540.26	28
540.312	24
540.365	34
540.417	22
540.469	30
540.521	28
540.574	34
540.626	32
540.678	34
540.731	22
540.783	38
540.835	30
540.888	38
540.94	28
540.992	30
541.044	34
541.097	30
541.149	28
541.201	28
541.254	18
541.306	30
541.358	30
541.41	36
541.463	26
541.515	26
541.567	36
541.62	34
541.672	30
541.724	28
541.776	38
541.829	20
541.881	30
541.933	34
541.985	40
542.038	18
542.09	34
542.142	30
542.195	32
542.247	28
542.299	34
542.351	34
542.404	36
542.456	34
542.508	32
542.56	36
542.613	34
542.665	24
542.717	30
542.77	30
542.822	30
542.874	30
542.926	36
542.979	36
543.031	34
543.083	30
543.135	32
543.188	30
543.24	36
543.292	26
543.344	26
543.397	24
543.449	36
543.501	30
543.554	38
543.606	30
543.658	36
543.71	32
543.763	42
543.815	24
543.867	44
543.919	40
543.972	38
544.024	36
544.076	30
544.128	28
544.181	38
544.233	32
544.285	32
544.337	36
544.39	34
544.442	30
544.494	38
544.547	28
544.599	38
544.651	32
544.703	38
544.755	36
544.808	34
544.86	38
544.912	36
544.965	28
545.017	24
545.069	30
545.121	36
545.174	30
545.226	34
545.278	38
545.33	30
545.383	30
545.435	32
545.487	38
545.539	42
545.591	34
545.644	28
545.696	36
545.748	32
545.8	40
545.853	34
545.905	36
545.957	36
546.009	40
546.062	24
546.114	40
546.166	26
546.218	36
546.271	28
546.323	34
546.375	38
546.427	40
546.48	32
546.532	36
546.584	36
546.636	42
546.689	44
546.741	40
546.793	38
546.845	42
546.898	30
546.95	32
547.002	36
547.054	40
547.106	32
547.159	38
547.211	38
547.263	38
547.315	40
547.368	36
547.42	32
547.472	42
547.524	32
547.577	36
547.629	32
547.681	38
547.733	44
547.785	40
547.838	36
547.89	34
547.942	38
547.994	40
548.047	24
548.099	42
548.151	30
548.203	48
548.255	34
548.308	40
548.36	40
548.412	36
548.464	36
548.517	44
548.569	38
548.621	34
548.673	34
548.725	40
548.778	44
548.83	36
548.882	38
548.934	46
548.987	42
549.039	26
549.091	36
549.143	40
549.195	38
549.248	36
549.3	36
549.352	44
549.404	36
549.456	48
549.509	36
549.561	42
549.613	48
549.665	30
549.718	42
549.77	36
549.822	46
549.874	44
549.926	46
549.979	46
550.031	46
550.083	42
550.135	36
550.187	46
550.24	40
550.292	42
550.344	48
550.396	46
550.448	50
550.501	44
550.553	46
550.605	48
550.657	48
550.709	40
550.762	44
550.814	48
550.866	54
550.918	44
550.97	52
551.023	48
551.075	46
551.127	52
551.179	48
551.231	52
551.284	64
551.336	54
551.388	66
551.44	58
551.492	72
551.545	60
551.597	66
551.649	64
551.701	78
551.753	74
551.806	84
551.858	74
551.91	96
551.962	94
552.014	102
552.067	106
552.119	128
552.171	152
552.223	180
552.275	228
552.327	274
552.38	410
552.432	732
552.484	1618
552.536	3056
552.588	5256
552.641	10024
552.693	17436
552.745	14336
552.797	7298
552.849	3042
552.901	1110
552.954	532
553.006	318
553.058	244
553.11	180
553.162	156
553.215	152
553.267	118
553.319	108
553.371	110
553.423	94
553.475	84
553.528	82
553.58	84
553.632	78
553.684	66
553.736	70
553.788	70
553.841	66
553.893	62
553.945	66
553.997	64
554.049	64
554.102	58
554.154	50
554.206	46
554.258	58
554.31	42
554.362	58
554.414	50
554.467	60
554.519	42
554.571	38
554.623	46
554.675	56
554.727	48
554.78	44
554.832	48
554.884	46
554.936	42
554.988	54
555.04	44
555.093	48
555.145	48
555.197	50
555.249	50
555.301	58
555.353	38
555.406	48
555.458	36
555.51	54
555.562	52
555.614	48
555.666	38
555.719	60
555.771	42
555.823	44
555.875	46
555.927	48
555.979	34
556.031	48
556.084	34
556.136	40
556.188	44
556.24	54
556.292	48
556.344	50
556.396	48
556.449	40
556.501	46
556.553	52
556.605	40
556.657	52
556.709	32
556.762	50
556.814	48
556.866	48
556.918	48
556.97	54
557.022	50
557.074	36
557.127	50
557.179	50
557.231	52
557.283	42
557.335	52
557.387	50
557.439	48
557.492	56
557.544	44
557.596	50
557.648	44
557.7	48
557.752	48
557.804	48
557.856	50
557.909	50
557.961	48
558.013	48
558.065	52
558.117	50
558.169	50
558.221	54
558.273	54
558.326	48
558.378	56
558.43	48
558.482	50
558.534	42
558.586	56
558.638	44
558.691	48
558.743	50
558.795	54
558.847	46
558.899	54
558.951	46
559.003	56
559.055	40
559.108	52
559.16	56
559.212	58
559.264	56
559.316	54
559.368	44
559.42	48
559.472	50
559.525	44
559.577	60
559.629	58
559.681	46
559.733	52
559.785	44
559.837	54
559.889	50
559.941	58
559.994	46
560.046	54
560.098	42
560.15	44
560.202	54
560.254	56
560.306	48
560.358	54
560.41	50
560.463	56
560.515	54
560.567	60
560.619	36
560.671	64
560.723	50
560.775	50
560.827	50
560.879	58
560.932	44
560.984	56
561.036	50
561.088	58
561.14	46
561.192	46
561.244	50
561.296	66
561.348	56
561.4	50
561.453	54
561.505	50
561.557	48
561.609	58
561.661	60
561.713	52
561.765	48
561.817	52
561.869	56
561.921	58
561.974	64
562.026	54
562.078	60
562.13	60
562.182	58
562.234	64
562.286	50
562.338	50
562.39	60
562.442	54
562.494	58
562.547	50
562.599	54
562.651	46
562.703	58
562.755	54
562.807	58
562.859	54
562.911	58
562.963	50
563.015	62
563.067	44
563.12	62
563.172	56
563.224	56
563.276	62
563.328	68
563.38	50
563.432	72
563.484	46
563.536	60
563.588	56
563.64	64
563.692	58
563.744	66
563.797	64
563.849	56
563.901	50
563.953	52
564.005	48
564.057	52
564.109	64
564.161	74
564.213	62
564.265	64
564.317	54
564.369	66
564.421	64
564.474	66
564.526	48
564.578	54
564.63	60
564.682	66
564.734	72
564.786	62
564.838	68
564.89	60
564.942	56
564.994	74
565.046	64
565.098	64
565.15	60
565.202	58
565.255	70
565.307	56
565.359	60
565.411	64
565.463	68
565.515	60
565.567	66
565.619	70
565.671	54
565.723	60
565.775	62
565.827	60
565.879	68
565.931	60
565.983	68
566.035	66
566.087	64
566.139	62
566.192	68
566.244	66
566.296	72
566.348	52
566.4	64
566.452	64
566.504	66
566.556	62
566.608	72
566.66	66
566.712	72
566.764	64
566.816	68
566.868	68
566.92	76
566.972	64
567.024	70
567.076	70
567.128	78
567.18	74
567.232	72
567.285	60
567.337	66
567.389	68
567.441	74
567.493	62
567.545	82
567.597	74
567.649	78
567.701	80
567.753	76
567.805	62
567.857	74
567.909	66
567.961	78
568.013	70
568.065	76
568.117	62.01
568.169	75.9484
568.221	70.1703
568.273	76.0038
568.325	78.9079
568.377	81.9553
568.429	81.9927
568.481	74.1468
568.533	70.254
568.585	62.95
568.637	75.789
568.69	80.8554
568.742	73.0053
568.794	80.2261
568.846	77.5596
568.898	81.3655
568.95	69.0432
569.002	73.4419
569.054	69.11
569.106	77.938
569.158	79.4749
569.21	80.6296
569.262	71.8463
569.314	80.59
569.366	72.1174
569.418	88.4045
569.47	83.6161
569.522	72.4345
569.574	67.3547
569.626	77.3693
569.678	80.2081
569.73	79.8509
569.782	81.2785
569.834	70.5585
569.886	78.5578
569.938	75.8261
569.99	87.6558
570.042	78.6174
570.094	88.61
570.146	77.8772
570.198	80.4937
570.25	74.4512
570.302	86.5402
570.354	87.2522
570.406	85.2856
570.458	82.1399
570.51	88.28
570.562	78.8245
570.614	81.376
570.666	88.02
570.718	84.0083
570.77	84.29
570.822	86.2105
570.874	85.73
570.926	85.5925
570.978	88.8237
571.03	93.8655
571.082	79.8169
571.134	90.0773
571.186	93.52
571.238	96.7759
571.29	89.2807
571.342	89.755
571.394	86.6646
571.446	89.0559
571.498	87.7289
571.55	93.7353
571.602	94.2544
571.654	88.6946
571.706	91.1263
571.758	100.795
571.81	103.826
571.862	100.275
571.914	92
571.966	99.1285
572.018	101.366
572.07	99.7293
572.122	104.35
572.174	100.051
572.226	99.8375
572.278	106.142
572.33	109.63
572.382	109.3
572.434	110.688
572.486	107.238
572.538	103.455
572.59	110.294
572.642	112.396
572.694	106.636
572.746	120.915
572.798	114.188
572.85	127.855
572.902	117.131
572.954	122.271
573.006	124.801
573.058	130.703
573.11	132.032
573.162	118.151
573.214	117.307
573.266	124.504
573.312	128
573.364	128
573.416	130
573.469	138
573.521	144
573.573	138
573.625	130
573.677	138
573.73	146
573.782	154
573.834	142
573.886	154
573.938	168
573.991	162
574.043	154
574.095	162
574.147	164
574.199	176
574.252	158
574.304	172
574.356	170
574.408	174
574.46	174
574.513	182
574.565	188
574.617	188
574.669	166
574.721	180
574.774	202
574.826	184
574.878	192
574.93	206
574.982	198
575.035	188
575.087	182
575.139	190
575.191	200
575.243	188
575.296	198
575.348	188
575.4	198
575.452	200
575.504	194
575.556	204
575.609	214
575.661	202
575.713	192
575.765	196
575.817	188
575.87	210
575.922	198
575.974	194
576.026	190
576.078	204
576.131	198
576.183	186
576.235	198
576.287	186
576.339	194
576.391	188
576.444	200
576.496	184
576.548	186
576.6	168
576.652	180
576.705	170
576.757	168
576.809	184
576.861	186
576.913	176
576.965	162
577.018	162
577.07	186
577.122	176
577.174	176
577.226	164
577.279	168
577.331	168
577.383	148
577.435	130
577.487	144
577.539	156
577.592	168
577.644	152
577.696	152
577.748	164
577.8	140
577.852	144
577.905	164
577.957	150
578.009	140
578.061	144
578.113	148
578.165	150
578.218	138
578.27	140
578.322	150
578.374	148
578.426	156
578.478	158
578.531	130
578.583	144
578.635	142
578.687	128
578.739	136
578.791	136
578.844	158
578.896	138
578.948	136
579	144
579.052	134
579.104	148
579.157	134
579.209	138
579.261	132
579.313	144
579.365	142
579.417	158
579.47	152
579.522	132
579.574	130
579.626	140
579.678	150
579.73	152
579.782	138
579.835	154
579.887	158
579.939	150
579.991	138
580.043	154
580.095	158
580.148	136
580.2	150
580.252	152
580.304	148
580.356	142
580.408	146
580.46	136
580.513	140
580.565	128
580.617	140
580.669	150
580.721	152
580.773	158
580.826	148
580.878	146
580.93	142
580.982	142
581.034	140
581.086	150
581.138	160
581.191	146
581.243	152
581.295	142
581.347	156
581.399	148
581.451	144
581.503	164
581.556	158
581.608	164
581.66	146
581.712	170
581.764	146
581.816	148
581.868	154
581.92	158
581.973	156
582.025	170
582.077	148
582.129	174
582.181	166
582.233	162
582.285	148
582.338	164
582.39	176
582.442	164
582.494	154
582.546	160
582.598	166
582.65	156
582.703	162
582.755	170
582.807	160
582.859	154
582.911	174
582.963	158
583.015	170
583.067	156
583.12	154
583.172	162
583.224	160
583.276	166
583.328	172
583.38	170
583.432	180
583.484	174
583.537	182
583.589	170
583.641	178
583.693	188
583.745	172
583.797	178
583.849	176
583.901	188
583.953	172
584.006	180
584.058	174
584.11	188
584.162	174
584.214	178
584.266	196
584.318	172
584.37	198
584.423	176
584.475	194
584.527	190
584.579	186
584.631	194
584.683	192
584.735	196
584.787	194
584.839	202
584.892	200
584.944	206
584.996	188
585.048	194
585.1	204
585.152	206
585.204	202
585.256	196
585.308	206
585.361	208
585.413	186
585.465	202
585.517	208
585.569	192
585.621	212
585.673	214
585.725	198
585.777	208
585.83	210
585.882	200
585.934	196
585.986	212
586.038	210
586.09	202
586.142	220
586.194	210
586.246	210
586.298	198
586.351	216
586.403	200
586.455	210
586.507	210
586.559	216
586.611	216
586.663	220
586.715	194
586.767	216
586.819	220
586.872	212
586.924	216
586.976	210
587.028	220
587.08	230
587.132	222
587.184	214
587.236	220
587.288	236
587.34	216
587.392	222
587.445	216
587.497	208
587.549	222
587.601	216
587.653	232
587.705	222
587.757	220
587.809	220
587.861	234
587.913	212
587.965	222
588.018	218
588.07	230
588.122	234
588.174	220
588.226	224
588.278	236
588.33	238
588.382	216
588.434	214
588.486	214
588.538	216
588.59	254
588.642	232
588.695	250
588.747	252
588.799	236
588.851	228
588.903	236
588.955	244
589.007	242
589.059	252
589.111	234
589.163	242
589.215	260
589.267	230
589.319	250
589.372	242
589.424	272
589.476	246
589.528	270
589.58	254
589.632	264
589.684	240
589.736	248
589.788	244
589.84	248
589.892	234
589.944	252
589.996	242
590.048	238
590.101	246
590.153	246
590.205	224
590.257	244
590.309	260
590.361	248
590.413	240
590.465	248
590.517	242
590.569	234
590.621	244
590.673	252
590.725	210
590.777	230
590.829	250
590.881	252
590.933	240
590.986	254
591.038	240
591.09	226
591.142	226
591.194	230
591.246	228
591.298	238
591.35	240
591.402	240
591.454	220
591.506	230
591.558	212
591.61	214
591.662	246
591.714	212
591.766	220
591.818	206
591.87	224
591.923	210
591.975	210
592.027	206
592.079	206
592.131	216
592.183	212
592.235	214
592.287	226
592.339	226
592.391	226
592.443	216
592.495	206
592.547	218
592.599	214
592.651	206
592.703	236
592.755	222
592.807	222
592.859	218
592.911	214
592.963	212
593.015	220
593.068	204
593.12	204
593.172	212
593.224	208
593.276	224
593.328	216
593.38	220
593.432	208
593.484	202
593.536	214
593.588	212
593.64	214
593.692	206
593.744	220
593.796	206
593.848	202
593.9	208
593.952	206
594.004	218
594.056	212
594.108	206
594.16	198
594.212	216
594.264	212
594.316	200
594.368	226
594.42	218
594.472	224
594.524	214
594.576	224
594.628	220
594.68	224
594.732	202
594.784	200
594.837	204
594.889	224
594.941	214
594.993	222
595.045	218
595.097	208
595.149	204
595.201	208
595.253	204
595.305	222
595.357	214
595.409	210
595.461	236
595.513	230
595.565	224
595.617	214
595.669	222
595.721	224
595.773	224
595.825	226
595.877	226
595.929	222
595.981	216
596.033	216
596.085	228
596.137	226
596.189	212
596.241	214
596.293	222
596.345	220
596.397	252
596.449	212
596.501	240
596.553	234
596.605	236
596.657	234
596.709	254
596.761	242
596.813	246
596.865	214
596.917	228
596.969	228
597.021	228
597.073	216
597.125	232
597.177	226
597.229	226
597.281	208
597.333	234
597.385	214
597.437	210
597.489	220
597.541	216
597.593	214
597.645	216
597.697	204
597.749	232
597.801	206
597.853	222
597.905	204
597.957	220
598.009	206
598.061	200
598.113	208
598.165	220
598.217	226
598.269	222
598.321	212
598.373	212
598.425	220
598.477	212
598.529	216
598.581	206
598.633	220
598.685	216
598.737	210
598.789	216
598.841	206
598.893	214
598.945	202
598.997	222
599.049	228
599.101	218
599.153	222
599.205	210
599.257	230
599.309	208
599.361	208
599.413	208
599.465	234
599.517	214
599.569	200
599.62	204
599.672	212
599.724	218
599.776	224
599.828	218
599.88	212
599.932	222
599.984	232
600.036	204
600.088	210
600.14	226
600.192	210
600.244	208
600.296	222
600.348	206
600.4	200
600.452	222
600.504	228
600.556	216
600.608	234
600.66	202
600.712	200
600.764	216
600.816	212
600.868	216
600.92	220
600.972	204
601.024	218
601.076	202
601.128	226
601.18	216
601.232	212
601.284	206
601.335	228
601.387	228
601.439	226
601.491	206
601.543	196
601.595	206
601.647	222
601.699	216
601.751	224
601.803	216
601.855	202
601.907	200
601.959	224
602.011	220
602.063	224
602.115	222
602.167	208
602.219	212
602.271	218
602.323	212
602.375	222
602.427	238
602.478	218
602.53	214
602.582	220
602.634	216
602.686	220
602.738	210
602.79	226
602.842	232
602.894	218
602.946	218
602.998	228
603.05	230
603.102	228
603.154	218
603.206	200
603.258	228
603.31	230
603.362	216
603.413	214
603.465	208
603.517	230
603.569	230
603.621	212
603.673	216
603.725	226
603.777	228
603.829	212
603.881	244
603.933	238
603.985	216
604.037	226
604.089	232
604.141	234
604.193	236
604.244	218
604.296	224
604.348	232
604.4	228
604.452	212
604.504	218
604.556	222
604.608	220
604.66	224
604.712	234
604.764	228
604.816	230
604.868	216
604.92	232
604.971	234
605.023	218
605.075	232
605.127	236
605.179	226
605.231	226
605.283	234
605.335	232
605.387	230
605.439	226
605.491	214
605.543	240
605.594	226
605.646	240
605.698	212
605.75	222
605.802	228
605.854	236
605.906	202
605.958	210
606.01	236
606.062	238
606.114	242
606.166	222
606.217	220
606.269	214
606.321	238
606.373	234
606.425	230
606.477	230
606.529	222
606.581	234
606.633	228
606.685	238
606.737	222
606.789	218
606.84	228
606.892	238
606.944	226
606.996	216
607.048	230
607.1	220
607.152	230
607.204	214
607.256	220
607.308	228
607.359	236
607.411	224
607.463	244
607.515	236
607.567	222
607.619	234
607.671	224
607.723	242
607.775	216
607.827	238
607.878	238
607.93	232
607.982	234
608.034	218
608.086	232
608.138	218
608.19	222
608.242	230
608.294	240
608.345	232
608.397	254
608.449	226
608.501	236
608.553	224
608.605	224
608.657	226
608.709	236
608.761	242
608.812	224
608.864	240
608.916	232
608.968	244
609.02	232
609.072	238
609.124	252
609.176	228
609.228	250
609.279	228
609.331	236
609.383	246
609.435	246
609.487	230
609.539	248
609.591	236
609.643	234
609.694	234
609.746	240
609.798	238
609.85	234
609.902	240
609.954	240
610.006	240
610.058	246
610.109	238
610.161	264
610.213	248
610.265	240
610.317	246
610.369	244
610.421	252
610.473	236
610.524	242
610.576	248
610.628	246
610.68	250
610.732	236
610.784	246
610.836	244
610.887	248
610.939	238
610.991	232
611.043	248
611.095	242
611.147	238
611.199	244
611.25	236
611.302	252
611.354	250
611.406	252
611.458	252
611.51	256
611.562	240
611.614	246
611.665	250
611.717	246
611.769	244
611.821	236
611.873	248
611.925	260
611.977	248
612.028	250
612.08	238
612.132	246
612.184	248
612.236	242
612.288	256
612.339	246
612.391	250
612.443	248
612.495	260
612.547	238
612.599	246
612.651	272
612.702	264
612.754	262
612.806	266
612.858	256
612.91	230
612.962	258
613.013	260
613.065	254
613.117	256
613.169	260
613.221	274
613.273	260
613.325	270
613.376	256
613.428	262
613.48	242
613.532	252
613.584	266
613.635	262
613.687	250
613.739	268
613.791	260
613.843	262
613.895	256
613.947	260
613.998	268
614.05	280
614.102	258
614.154	282
614.206	264
614.258	276
614.309	256
614.361	262
614.413	268
614.465	266
614.517	260
614.568	286
614.62	244
614.672	282
614.724	266
614.776	266
614.828	280
614.879	280
614.931	270
614.983	294
615.035	282
615.087	278
615.139	280
615.19	280
615.242	280
615.294	280
615.346	276
615.398	266
615.449	278
615.501	280
615.553	288
615.605	266
615.657	270
615.709	288
615.76	272
615.812	280
615.864	282
615.916	288
615.968	274
616.019	254.069
616.071	279.842
616.123	293.184
616.175	291.254
616.227	277.84
616.278	276.197
616.33	282.426
616.382	283.301
616.434	291.304
616.486	288.681
616.537	280.956
616.589	303.49
616.641	278.602
616.693	298.648
616.745	288.518
616.797	289.952
616.848	268.324
616.9	299.819
616.952	288.559
617.004	273.044
617.056	283.209
617.107	285.201
617.159	298.947
617.211	290.215
617.263	293.586
617.315	297.03
617.366	292.386
617.418	285.319
617.47	292.014
617.522	287.003
617.573	285.988
617.625	300.596
617.677	303.597
617.729	281.82
617.781	294.77
617.832	297.163
617.884	292.527
617.936	295.282
617.988	303.759
618.04	298.019
618.091	284.189
618.143	296.539
618.195	303.289
618.247	294.941
618.299	289.73
618.35	292.291
618.402	302.244
618.454	298.376
618.506	294.422
618.557	294.353
618.609	288.588
618.661	301.091
618.713	308.16
618.765	290.772
618.816	303.942
618.868	298.365
618.92	296.404
618.972	290.947
619.023	307.095
619.075	307.04
619.127	288.719
619.179	289.38
619.231	303.176
619.282	300.007
619.334	302.334
619.386	298.026
619.438	301.289
619.49	301.651
619.541	293.766
619.593	297.072
619.645	290.889
619.697	303.479
619.748	306.082
619.8	306.238
619.852	298.87
619.904	308.087
619.955	304.099
620.007	292.157
620.059	304.401
620.111	304.928
620.162	298.335
620.214	289.134
620.266	301.191
620.318	314.187
620.37	315.323
620.421	297.239
620.473	293.224
620.525	287.815
620.577	298.282
620.628	299.351
620.68	297.608
620.732	309.509
620.784	313.249
620.835	315.814
620.887	310.048
620.939	303.413
620.991	313.011
621.042	307.443
621.094	293.136
621.146	308.58
621.198	306.136
621.249	290.751
621.269	286
621.321	304
621.373	296
621.425	320
621.477	308
621.529	282
621.581	314
621.633	310
621.685	320
621.737	308
621.789	310
621.841	318
621.893	316
621.945	310
621.997	320
622.049	328
622.101	328
622.153	314
622.205	310
622.257	326
622.309	294
622.361	302
622.413	318
622.465	298
622.517	312
622.569	306
622.621	318
622.673	292
622.725	316
622.776	298
622.828	320
622.88	314
622.932	328
622.984	306
623.036	324
623.088	316
623.14	318
623.192	328
623.244	304
623.296	316
623.348	324
623.4	312
623.452	318
623.504	300
623.556	298
623.608	308
623.66	314
623.712	342
623.764	322
623.816	314
623.868	324
623.92	326
623.972	324
624.024	298
624.076	306
624.128	316
624.18	332
624.232	310
624.284	328
624.336	320
624.388	314
624.44	320
624.492	324
624.544	330
624.596	306
624.648	324
624.699	330
624.751	330
624.803	326
624.855	326
624.907	314
624.959	330
625.011	322
625.063	308
625.115	320
625.167	334
625.219	330
625.271	330
625.323	320
625.375	324
625.427	334
625.479	334
625.531	334
625.583	316
625.635	336
625.687	352
625.739	330
625.791	328
625.843	336
625.895	326
625.946	320
625.998	338
626.05	334
626.102	324
626.154	316
626.206	348
626.258	332
626.31	340
626.362	318
626.414	308
626.466	346
626.518	336
626.57	310
626.622	342
626.674	340
626.726	320
626.778	320
626.83	340
626.882	326
626.934	324
626.985	324
627.037	348
627.089	346
627.141	348
627.193	340
627.245	330
627.297	336
627.349	340
627.401	320
627.453	348
627.505	348
627.557	328
627.609	342
627.661	346
627.713	348
627.765	346
627.817	332
627.868	346
627.92	352
627.972	338
628.024	342
628.076	342
628.128	338
628.18	354
628.232	330
628.284	334
628.336	340
628.388	330
628.44	324
628.492	344
628.544	328
628.596	368
628.647	342
628.699	346
628.751	346
628.803	328
628.855	332
628.907	338
628.959	374
629.011	344
629.063	346
629.115	348
629.167	346
629.219	350
629.271	344
629.322	340
629.374	378
629.426	356
629.478	354
629.53	360
629.582	362
629.634	356
629.686	326
629.738	332
629.79	362
629.842	362
629.894	364
629.945	352
629.997	372
630.049	362
630.101	356
630.153	352
630.205	362
630.257	360
630.309	366
630.361	362
630.413	366
630.465	374
630.517	368
630.568	352
630.62	350
630.672	382
630.724	374
630.776	356
630.828	362
630.88	394
630.932	390
630.984	374
631.036	378
631.088	382
631.14	354
631.191	368
631.243	364
631.295	352
631.347	374
631.399	362
631.451	370
631.503	362
631.555	372
631.607	366
631.659	378
631.71	372
631.762	384
631.814	368
631.866	366
631.918	362
631.97	400
632.022	388
632.074	370
632.126	390
632.178	360
632.229	384
632.281	376
632.333	384
632.385	390
632.437	392
632.489	398
632.541	382
632.593	370
632.645	374
632.696	398
632.748	384
632.8	410
632.852	410
632.904	410
632.956	388
633.008	378
633.06	408
633.112	392
633.164	396
633.215	384
633.267	376
633.319	406
633.371	390
633.423	398
633.475	408
633.527	398
633.579	412
633.63	396
633.682	424
633.734	412
633.786	414
633.838	440
633.89	394
633.942	396
633.994	404
634.046	412
634.097	396
634.149	408
634.201	412
634.253	412
634.305	406
634.357	410
634.409	440
634.461	430
634.512	408
634.564	420
634.616	428
634.668	434
634.72	458
634.772	422
634.824	448
634.876	450
634.927	456
634.979	426
635.031	468
635.083	466
635.135	454
635.187	438
635.239	462
635.291	458
635.342	476
635.394	454
635.446	456
635.498	468
635.55	472
635.602	450
635.654	494
635.705	472
635.757	486
635.809	494
635.861	498
635.913	486
635.965	506
636.017	530
636.068	510
636.12	522
636.172	544
636.224	522
636.276	500
636.328	540
636.38	532
636.431	544
636.483	528
636.535	524
636.587	540
636.639	540
636.691	568
636.743	552
636.794	578
636.846	582
636.898	552
636.95	584
637.002	566
637.054	576
637.106	616
637.157	582
637.209	614
637.261	600
637.313	594
637.365	592
637.417	608
637.469	608
637.52	582
637.572	618
637.624	612
637.676	588
637.728	598
637.78	600
637.831	616
637.883	598
637.935	606
637.987	626
638.039	592
638.091	598
638.143	600
638.194	600
638.246	582
638.298	588
638.35	602
638.402	580
638.454	580
638.505	578
638.557	570
638.609	584
638.661	544
638.713	578
638.765	556
638.816	548
638.868	582
638.92	558
638.972	552
639.024	568
639.076	554
639.127	554
639.179	556
639.231	538
639.283	554
639.335	532
639.387	564
639.438	552
639.49	534
639.542	524
639.594	530
639.646	548
639.698	516
639.749	526
639.801	532
639.853	530
639.905	532
639.957	508
640.008	506
640.06	528
640.112	506
640.164	518
640.216	538
640.268	534
640.319	534
640.371	514
640.423	510
640.475	516
640.527	532
640.578	510
640.63	502
640.682	488
640.734	492
640.786	526
640.838	496
640.889	520
640.941	504
640.993	520
641.045	496
641.097	518
641.148	512
641.2	506
641.252	488
641.304	516
641.356	518
641.408	532
641.459	490
641.511	504
641.563	526
641.615	538
641.667	516
641.718	488
641.77	516
641.822	512
641.874	502
641.926	480
641.977	532
642.029	512
642.081	500
642.133	514
642.185	504
642.236	528
642.288	504
642.34	496
642.392	506
642.444	498
642.495	522
642.547	514
642.599	508
642.651	516
642.703	524
642.754	520
642.806	528
642.858	522
642.91	518
642.962	488
643.013	492
643.065	490
643.117	524
643.169	504
643.221	524
643.272	502
643.324	524
643.376	522
643.428	512
643.479	506
643.531	520
643.583	512
643.635	512
643.687	506
643.738	514
643.79	504
643.842	510
643.894	506
643.946	550
643.997	522
644.049	504
644.101	518
644.153	516
644.205	516
644.256	526
644.308	496
644.36	510
644.412	514
644.463	524
644.515	520
644.567	532
644.619	512
644.671	522
644.722	534
644.774	518
644.826	504
644.878	508
644.929	520
644.981	538
645.033	520
645.085	524
645.136	494
645.188	540
645.24	518
645.292	516
645.344	548
645.395	538
645.447	536
645.499	526
645.551	538
645.602	544
645.654	546
645.706	546
645.758	548
645.81	516
645.861	528
645.913	524
645.965	544
646.017	552
646.068	548
646.12	556
646.172	514
646.224	566
646.275	530
646.327	532
646.379	558
646.431	544
646.482	548
646.534	530
646.586	558
646.638	532
646.689	556
646.741	536
646.793	538
646.845	546
646.896	544
646.948	516
647	558
647.052	552
647.104	560
647.155	540
647.207	564
647.259	554
647.31	544
647.362	540
647.414	534
647.466	546
647.518	554
647.569	530
647.621	542
647.673	570
647.724	540
647.776	542
647.828	548
647.88	564
647.931	548
647.983	558
648.035	550
648.087	562
648.138	552
648.19	566
648.242	554
648.294	542
648.345	564
648.397	546
648.449	564
648.501	514
648.552	560
648.604	558
648.656	570
648.708	578
648.759	576
648.811	584
648.863	554
648.915	568
648.966	570
649.018	566
649.07	572
649.121	562
649.173	566
649.225	560
649.277	568
649.328	576
649.38	574
649.432	568
649.484	574
649.535	556
649.587	590
649.639	592
649.69	582
649.742	592
649.794	576
649.846	610
649.897	564
649.949	600
650.001	572
650.053	584
650.104	604
650.156	594
650.208	600
650.259	596
650.311	596
650.363	600
650.415	596
650.466	586
650.518	580
650.57	600
650.621	604
650.673	584
650.725	594
650.777	582
650.828	576
650.88	580
650.932	588
650.984	584
651.035	608
651.087	584
651.139	596
651.19	610
651.242	566
651.294	638
651.345	590
651.397	624
651.449	588
651.501	600
651.552	614
651.604	610
651.656	606
651.707	590
651.759	602
651.811	596
651.863	604
651.914	616
651.966	630
652.018	628
652.069	604
652.121	624
652.173	604
652.224	624
652.276	634
652.328	620
652.38	624
652.431	620
652.483	626
652.535	628
652.586	610
652.638	646
652.69	628
652.741	632
652.793	620
652.845	628
652.897	624
652.948	634
653	602
653.052	658
653.103	656
653.155	664
653.207	624
653.258	586
653.31	630
653.362	646
653.413	654
653.465	620
653.517	678
653.568	634
653.62	646
653.672	654
653.724	666
653.775	650
653.827	676
653.879	670
653.93	652
653.982	630
654.034	656
654.085	658
654.137	676
654.189	678
654.24	660
654.292	686
654.344	694
654.395	670
654.447	684
654.499	676
654.55	690
654.602	678
654.654	640
654.705	648
654.757	646
654.809	684
654.86	678
654.912	656
654.964	700
655.016	666
655.067	674
655.119	656
655.17	686
655.222	666
655.274	678
655.326	654
655.377	668
655.429	684
655.481	714
655.532	700
655.584	694
655.635	700
655.687	702
655.739	674
655.79	698
655.842	708
655.894	708
655.945	708
655.997	718
656.049	732
656.1	690
656.152	710
656.204	740
656.255	712
656.307	726
656.359	708
656.41	718
656.462	726
656.514	712
656.565	714
656.617	732
656.669	726
656.72	744
656.772	718
656.824	726
656.875	772
656.927	732
656.979	698
657.03	712
657.082	746
657.134	752
657.185	744
657.237	726
657.288	734
657.34	720
657.392	778
657.443	728
657.495	766
657.547	752
657.598	782
657.65	746
657.702	754
657.753	752
657.805	766
657.857	738
657.908	756
657.96	760
658.011	750
658.063	758
658.115	770
658.166	760
658.218	772
658.27	738
658.321	752
658.373	744
658.425	780
658.476	752
658.528	778
658.579	770
658.631	742
658.683	756
658.734	782
658.786	788
658.838	766
658.889	740
658.941	784
658.992	778
659.044	790
659.096	736
659.147	792
659.199	758
659.251	786
659.302	766
659.354	746
659.406	790
659.457	788
659.509	774
659.56	770
659.612	724
659.664	794
659.715	782
659.767	784
659.818	752
659.87	782
659.922	762
659.973	754
660.025	740
660.077	778
660.128	788
660.18	736
660.231	780
660.283	762
660.335	762
660.386	766
660.438	768
660.49	774
660.541	780
660.593	770
660.644	770
660.696	782
660.748	756
660.799	774
660.851	768
660.902	764
660.954	758
661.006	774
661.057	752
661.109	748
661.16	750
661.212	746
661.264	770
661.315	738
661.367	762
661.418	750
661.47	770
661.522	742
661.573	762
661.625	756
661.676	770
661.728	770
661.78	744
661.831	758
661.883	762
661.934	786
661.986	768
662.038	760
662.089	792
662.141	778
662.192	790
662.244	756
662.296	780
662.347	786
662.399	748
662.45	776
662.502	736
662.554	772
662.605	758
662.657	744
662.708	780
662.76	756
662.811	764
662.863	748
662.915	766
662.966	774
663.018	766
663.069	768
663.121	778
663.173	754
663.224	766
663.276	760
663.327	764
663.379	780
663.43	768
663.482	782
663.534	772
663.585	786
663.637	746
663.688	778
663.74	744.168
663.792	750.498
663.843	749.315
663.895	764.343
663.946	775.681
663.998	781.058
664.049	785.398
664.101	769.459
664.153	796.185
664.204	782.746
664.256	769.278
664.307	787.128
664.359	734.735
664.41	719.11
664.462	779.67
664.513	778.695
664.565	783.589
664.617	777.873
664.668	779.565
664.72	778.03
664.771	761.973
664.823	773.829
664.874	772.975
664.926	772.629
664.978	765.794
665.029	772.252
665.081	769.81
665.132	747.166
665.184	772.43
665.235	782.66
665.287	765.554
665.339	748.517
665.39	772.661
665.442	781.533
665.493	778.684
665.545	763.934
665.596	759.577
665.648	755.149
665.699	773.036
665.751	771.294
665.802	779.999
665.854	786.31
665.906	780.314
665.957	758.112
666.009	766.461
666.06	779.674
666.112	788.233
666.163	762.591
666.215	771.865
666.266	777.963
666.318	770.074
666.37	779.621
666.421	763.793
666.473	771.577
666.524	781.592
666.576	770.146
666.627	759.343
666.679	774.88
666.73	753.958
666.782	768.858
666.833	761.224
666.885	761.594
666.937	768.98
666.988	779.368
667.04	771.251
667.091	771.489
667.143	762.662
667.194	770.309
667.246	778.284
667.297	775.84
667.349	757.26
667.4	775.352
667.452	785.07
667.503	772.032
667.555	766.998
667.607	754.108
667.658	752.723
667.71	769.562
667.761	778.945
667.813	766.896
667.864	762.205
667.916	789.056
667.967	790.071
668.019	778.698
668.07	776.636
668.122	751.165
668.173	766.8
668.225	779.964
668.276	772.998
668.328	767.513
668.379	771.675
668.431	773.186
668.482	762.666
668.534	786.128
668.586	776.536
668.637	794.498
668.689	780.436
668.74	773.257
668.792	769.157
668.843	794.149
668.895	812.663
668.935	774
668.987	780
669.038	794
669.09	780
669.142	766
669.194	776
669.245	756
669.297	782
669.349	764
669.401	780
669.453	780
669.504	758
669.556	790
669.608	806
669.66	782
669.711	764
669.763	770
669.815	770
669.867	780
669.918	770
669.97	760
670.022	784
670.074	772
670.125	760
670.177	788
670.229	778
670.281	800
670.332	788
670.384	782
670.436	792
670.488	754
670.539	772
670.591	764
670.643	794
670.695	774
670.747	788
670.798	758
670.85	776
670.902	790
670.953	798
671.005	784
671.057	804
671.109	782
671.161	768
671.212	758
671.264	818
671.316	814
671.367	782
671.419	792
671.471	820
671.523	770
671.575	738
671.626	792
671.678	778
671.73	786
671.781	770
671.833	774
671.885	796
671.937	786
671.988	792
672.04	802
672.092	818
672.144	798
672.195	810
672.247	806
672.299	800
672.351	796
672.402	788
672.454	770
672.506	810
672.558	790
672.609	800
672.661	794
672.713	792
672.765	780
672.816	820
672.868	794
672.92	796
672.971	790
673.023	808
673.075	786
673.127	780
673.178	826
673.23	798
673.282	794
673.334	812
673.385	806
673.437	816
673.489	812
673.54	800
673.592	820
673.644	812
673.696	844
673.747	792
673.799	836
673.851	830
673.903	816
673.954	816
674.006	808
674.058	836
674.109	830
674.161	818
674.213	808
674.265	790
674.316	822
674.368	782
674.42	814
674.471	818
674.523	816
674.575	832
674.627	856
674.678	828
674.73	808
674.782	808
674.833	800
674.885	834
674.937	826
674.989	820
675.04	818
675.092	806
675.144	846
675.195	824
675.247	794
675.299	808
675.351	838
675.402	836
675.454	822
675.506	844
675.557	836
675.609	818
675.661	834
675.713	850
675.764	842
675.816	810
675.868	842
675.919	832
675.971	846
676.023	854
676.074	840
676.126	844
676.178	840
676.23	836
676.281	850
676.333	820
676.385	872
676.436	846
676.488	822
676.54	834
676.591	834
676.643	828
676.695	814
676.747	842
676.798	878
676.85	848
676.902	876
676.953	864
677.005	810
677.057	818
677.108	830
677.16	842
677.212	826
677.263	856
677.315	838
677.367	854
677.419	828
677.47	852
677.522	830
677.574	866
677.625	858
677.677	854
677.729	856
677.78	800
677.832	820
677.884	830
677.935	854
677.987	870
678.039	890
678.091	876
678.142	810
678.194	862
678.246	842
678.297	868
678.349	840
678.401	846
678.452	846
678.504	848
678.556	848
678.607	830
678.659	836
678.711	862
678.762	816
678.814	832
678.866	846
678.917	846
678.969	832
679.021	862
679.072	828
679.124	846
679.176	844
679.227	852
679.279	822
679.331	832
679.382	846
679.434	854
679.486	874
679.537	866
679.589	840
679.641	856
679.692	880
679.744	846
679.796	860
679.847	854
679.899	866
679.951	842
680.003	842
680.054	834
680.106	856
680.157	862
680.209	870
680.261	844
680.312	874
680.364	864
680.416	878
680.467	844
680.519	880
680.571	814
680.622	838
680.674	870
680.726	824
680.777	832
680.829	850
680.881	872
680.932	860
680.984	872
681.036	862
681.087	834
681.139	898
681.191	858
681.242	864
681.294	840
681.346	864
681.397	836
681.449	856
681.501	864
681.552	860
681.604	866
681.656	854
681.707	868
681.759	860
681.81	868
681.862	868
681.914	852
681.965	862
682.017	876
682.069	866
682.12	858
682.172	878
682.224	840
682.275	908
682.327	866
682.379	862
682.43	864
682.482	876
682.533	856
682.585	882
682.637	882
682.688	848
682.74	886
682.792	848
682.843	860
682.895	890
682.947	896
682.998	848
683.05	872
683.102	892
683.153	888
683.205	868
683.256	862
683.308	852
683.36	868
683.411	838
683.463	870
683.515	860
683.566	842
683.618	858
683.669	864
683.721	880
683.773	852
683.824	846
683.876	864
683.928	874
683.979	874
684.031	882
684.082	854
684.134	868
684.186	852
684.237	876
684.289	840
684.341	866
684.392	848
684.444	882
684.495	854
684.547	854
684.599	852
684.65	872
684.702	884
684.754	884
684.805	874
684.857	858
684.908	872
684.96	846
685.012	874
685.063	884
685.115	870
685.166	840
685.218	856
685.27	866
685.321	886
685.373	874
685.424	840
685.476	834
685.528	830
685.579	840
685.631	866
685.683	868
685.734	842
685.786	830
685.837	844
685.889	844
685.941	834
685.992	864
686.044	886
686.095	878
686.147	822
686.199	854
686.25	880
686.302	848
686.353	842
686.405	852
686.457	842
686.508	840
686.56	840
686.611	838
686.663	842
686.715	814
686.766	842
686.818	850
686.869	884
686.921	834
686.973	848
687.024	834
687.076	828
687.127	844
687.179	860
687.231	866
687.282	830
687.334	862
687.385	812
687.437	850
687.489	850
687.54	878
687.592	826
687.643	852
687.695	848
687.747	844
687.798	858
687.85	852
687.901	854
687.953	838
688.004	856
688.056	826
688.108	834
688.159	844
688.211	856
688.262	844
688.314	826
688.366	842
688.417	844
688.469	836
688.52	820
688.572	814
688.623	818
688.675	854
688.727	828
688.778	834
688.83	840
688.881	834
688.933	838
688.984	822
689.036	850
689.088	802
689.139	844
689.191	852
689.242	846
689.294	840
689.346	858
689.397	824
689.449	858
689.5	862
689.552	848
689.603	858
689.655	844
689.706	834
689.758	846
689.81	846
689.861	854
689.913	828
689.964	824
690.016	870
690.067	814
690.119	840
690.171	854
690.222	826
690.274	836
690.325	822
690.377	842
690.428	846
690.48	818
690.531	840
690.583	814
690.635	824
690.686	834
690.738	854
690.789	778
690.841	818
690.892	838
690.944	844
690.996	842
691.047	848
691.099	830
691.15	794
691.202	822
691.253	828
691.305	828
691.356	818
691.408	832
691.459	846
691.511	836
691.563	800
691.614	806
691.666	822
691.717	812
691.769	830
691.82	826
691.872	844
691.923	834
691.975	822
692.026	778
692.078	826
692.13	820
692.181	824
692.233	832
692.284	804
692.336	804
692.387	814
692.439	820
692.49	824
692.542	814
692.593	812
692.645	832
692.697	806
692.748	812
692.8	816
692.851	812
692.903	814
692.954	826
693.006	802
693.057	818
693.109	782
693.16	826
693.212	762
693.263	798
693.315	786
693.366	812
693.418	786
693.47	810
693.521	822
693.573	808
693.624	812
693.676	822
693.727	834
693.779	830
693.83	806
693.882	816
693.933	810
693.985	814
694.036	816
694.088	814
694.139	776
694.191	814
694.242	810
694.294	790
694.345	814
694.397	788
694.448	814
694.5	814
694.552	812
694.603	818
694.655	786
694.706	784
694.758	840
694.809	824
694.861	790
694.912	770
694.964	806
695.015	804
695.067	808
695.118	790
695.17	794
695.221	798
695.273	776
695.324	810
695.376	808
695.427	834
695.479	802
695.53	770
695.582	800
695.633	812
695.685	806
695.736	782
695.788	802
695.839	794
695.891	784
695.942	774
695.994	776
696.045	800
696.097	794
696.148	782
696.2	782
696.251	780
696.303	804
696.354	778
696.406	788
696.457	760
696.509	806
696.56	792
696.612	788
696.663	788
696.715	818
696.766	790
696.818	794
696.869	786
696.921	782
696.972	772
697.024	784
697.075	774
697.127	792
697.178	798
697.23	780
697.281	768
697.333	788
697.384	760
697.436	798
697.487	788
697.539	796
697.59	746
697.642	778
697.693	788
697.745	792
697.796	764
697.847	784
697.899	788
697.95	790
698.002	760
698.053	756
698.105	788
698.156	764
698.208	766
698.259	768
698.311	762
698.362	792
698.414	742
698.465	752
698.517	756
698.568	782
698.62	784
698.671	768
698.723	758
698.774	784
698.826	784
698.877	766
698.928	758
698.98	756
699.031	792
699.083	760
699.134	746
699.186	766
699.237	752
699.289	788
699.34	786
699.392	754
699.443	760
699.495	764
699.546	752
699.598	748
699.649	810
699.7	756
699.752	732
699.803	780
699.855	780
699.906	740
699.958	754
700.009	756
700.061	776
700.112	758
700.164	740
700.215	780
700.266	762
700.318	758
700.369	760
700.421	722
700.472	782
700.524	744
700.575	748
700.627	774
700.678	768
700.73	734
700.781	742
700.832	770
700.884	756
700.935	734
700.987	740
701.038	764
701.09	772
701.141	744
701.193	734
701.244	738
701.295	740
701.347	730
701.398	754
701.45	764
701.501	756
701.553	776
701.604	734
701.656	750
701.707	784
701.758	774
701.81	742
701.861	758
701.913	770
701.964	760
702.016	748
702.067	774
702.119	776
702.17	756
702.221	762
702.273	756
702.324	766
702.376	758
702.427	778
702.479	748
702.53	752
702.581	760
702.633	754
702.684	746
702.736	752
702.787	746
702.839	752
702.89	774
702.941	758
702.993	762
703.044	750
703.096	750
703.147	750
703.199	732
703.25	786
703.301	768
703.353	746
703.404	758
703.456	768
703.507	758
703.558	756
703.61	748
703.661	728
703.713	722
703.764	742
703.816	756
703.867	768
703.918	760
703.97	744
704.021	752
704.073	752
704.124	752
704.175	768
704.227	758
704.278	762
704.33	752
704.381	744
704.432	734
704.484	738
704.535	736
704.587	736
704.638	748
704.69	726
704.741	760
704.792	742
704.844	732
704.895	722
704.947	742
704.998	740
705.049	738
705.101	716
705.152	740
705.204	726
705.255	738
705.306	740
705.358	748
705.409	734
705.461	718
705.512	712
705.563	730
705.615	736
705.666	736
705.718	726
705.769	732
705.82	726
705.872	740
705.923	730
705.974	716
706.026	712
706.077	740
706.129	722
706.18	726
706.231	732
706.283	708
706.334	720
706.386	712
706.437	700
706.488	724
706.54	710
706.591	724
706.643	716
706.694	730
706.745	686
706.797	706
706.848	718
706.899	728
706.951	712
707.002	702
707.054	712
707.105	728
707.156	718
707.208	692
707.259	704
707.31	734
707.362	700
707.413	748
707.465	704
707.516	712
707.567	680
707.619	726
707.67	694
707.721	706
707.773	718
707.824	696
707.876	712
707.927	704
707.978	716
708.03	702
708.081	730
708.132	710
708.184	728
708.235	686
708.287	700
708.338	690
708.389	732
708.441	702
708.492	688
708.543	666
708.595	706
708.646	702
708.697	670
708.749	726
708.8	708
708.852	694
708.903	676
708.954	704
709.006	706
709.057	698
709.108	718
709.16	682
709.211	682
709.262	690
709.314	722
709.365	686
709.416	694
709.468	656
709.519	676
709.57	694
709.622	694
709.673	684
709.725	718
709.776	686
709.827	700
709.879	656
709.93	682
709.981	696
710.033	682
710.084	678
710.135	692
710.187	678
710.238	668
710.289	686
710.341	696
710.392	694
710.443	670
710.495	672
710.546	688
710.597	700
710.649	688
710.7	664
710.751	694
710.803	660
710.854	672
710.905	686
710.957	664
711.008	682
711.059	712
711.111	694
711.162	666
711.213	684
711.265	682.03
711.316	692.23
711.367	700.089
711.419	664.275
711.47	681.632
711.521	686.596
711.573	689.969
711.624	677.698
711.675	682.554
711.727	685.071
711.778	665.41
711.829	678.778
711.881	679.787
711.932	696.008
711.983	672.28
712.035	671.117
712.086	680.662
712.137	652.44
712.189	670.519
712.24	692.077
712.291	682.266
712.343	679.655
712.394	666.994
712.445	658.861
712.496	678.975
712.548	688.164
712.599	680.415
712.65	659.868
712.702	667.564
712.753	682.371
712.804	655.491
712.856	675.129
712.907	676.271
712.958	649.67
713.01	657.453
713.061	685.29
713.112	661.708
713.164	663.864
713.215	666.735
713.266	661.771
713.317	653.734
713.369	677.556
713.42	666.222
713.471	660.557
713.523	669.661
713.574	655.289
713.625	664.961
713.677	653.463
713.728	658.906
713.779	674.122
713.831	650.369
713.882	644.292
713.933	644.205
713.984	655.888
714.036	656.582
714.087	639.152
714.138	644.175
714.19	643.741
714.241	661.149
714.292	651.423
714.343	651.318
714.395	641.181
714.446	647.407
714.497	650.147
714.549	635.239
714.6	635.154
714.651	644.472
714.703	641.275
714.754	646.023
714.805	650.365
714.856	644.33
714.908	638.298
714.959	640.705
715.01	624.481
715.062	638.72
715.113	629.037
715.164	627.243
715.215	627.686
715.267	628.475
715.318	627.123
715.369	631.277
715.421	633.087
715.472	634.168
715.523	635.613
715.574	635.45
715.626	632.026
715.677	633.2
715.728	620.307
715.779	621.464
715.831	640.58
715.882	625.865
715.933	624.622
715.985	618.3
716.036	618.468
716.087	630.643
716.138	651.595
716.19	629.735
716.241	637.756
716.292	634.454
716.343	630.452
716.395	631.414
716.433	630
716.485	622
716.536	608
716.588	594
716.639	634
716.691	628
716.742	588
716.794	624
716.845	638
716.897	632
716.948	590
717	620
717.052	652
717.103	638
717.155	618
717.206	620
717.258	620
717.309	624
717.361	608
717.412	614
717.464	614
717.515	616
717.567	634
717.618	606
717.67	622
717.721	602
717.773	624
717.824	600
717.876	610
717.927	622
717.979	606
718.03	618
718.082	600
718.133	624
718.185	614
718.237	618
718.288	610
718.34	580
718.391	616
718.443	604
718.494	616
718.546	634
718.597	618
718.649	618
718.7	602
718.752	598
718.803	608
718.855	608
718.906	606
718.958	636
719.009	606
719.061	610
719.112	618
719.164	614
719.215	598
719.267	594
719.318	606
719.37	578
719.421	598
719.473	600
719.524	604
719.576	606
719.627	600
719.679	606
719.73	596
719.782	610
719.833	604
719.885	618
719.936	586
719.988	610
720.039	582
720.091	596
720.142	580
720.194	578
720.245	592
720.297	578
720.348	584
720.4	596
720.451	590
720.503	592
720.554	578
720.606	606
720.657	616
720.709	580
720.76	552
720.812	602
720.863	590
720.915	582
720.966	586
721.018	598
721.069	596
721.121	584
721.172	584
721.224	548
721.275	590
721.327	598
721.378	586
721.43	586
721.481	576
721.532	558
721.584	588
721.635	580
721.687	568
721.738	566
721.79	540
721.841	562
721.893	550
721.944	534
721.996	546
722.047	556
722.099	570
722.15	554
722.202	554
722.253	554
722.305	564
722.356	554
722.408	538
722.459	576
722.511	568
722.562	534
722.614	570
722.665	542
722.716	556
722.768	582
722.819	570
722.871	566
722.922	554
722.974	562
723.025	546
723.077	522
723.128	546
723.18	522
723.231	556
723.283	530
723.334	548
723.386	532
723.437	570
723.488	552
723.54	560
723.591	536
723.643	568
723.694	550
723.746	578
723.797	538
723.849	536
723.9	542
723.952	540
724.003	558
724.055	546
724.106	530
724.157	546
724.209	536
724.26	554
724.312	528
724.363	546
724.415	572
724.466	524
724.518	542
724.569	546
724.621	538
724.672	530
724.723	522
724.775	562
724.826	554
724.878	544
724.929	548
724.981	556
725.032	550
725.084	514
725.135	542
725.187	546
725.238	544
725.289	556
725.341	536
725.392	526
725.444	508
725.495	536
725.547	514
725.598	512
725.65	546
725.701	510
725.752	524
725.804	528
725.855	556
725.907	522
725.958	534
726.01	516
726.061	524
726.112	546
726.164	550
726.215	528
726.267	516
726.318	528
726.37	518
726.421	532
726.473	530
726.524	534
726.575	516
726.627	506
726.678	520
726.73	528
726.781	536
726.833	504
726.884	526
726.935	516
726.987	496
727.038	530
727.09	538
727.141	516
727.193	504
727.244	494
727.295	546
727.347	506
727.398	520
727.45	506
727.501	524
727.552	522
727.604	502
727.655	528
727.707	496
727.758	510
727.81	508
727.861	492
727.912	522
727.964	502
728.015	516
728.067	500
728.118	512
728.17	496
728.221	498
728.272	506
728.324	510
728.375	506
728.427	500
728.478	528
728.529	514
728.581	520
728.632	506
728.684	516
728.735	486
728.786	520
728.838	474
728.889	498
728.941	482
728.992	518
729.044	522
729.095	490
729.146	468
729.198	482
729.249	482
729.301	480
729.352	474
729.403	478
729.455	470
729.506	486
729.558	496
729.609	496
729.66	460
729.712	478
729.763	478
729.815	466
729.866	470
729.917	456
729.969	466
730.02	494
730.072	478
730.123	476
730.174	510
730.226	482
730.277	482
730.329	472
730.38	484
730.431	488
730.483	482
730.534	494
730.586	470
730.637	464
730.688	456
730.74	484
730.791	490
730.842	490
730.894	496
730.945	476
730.997	488
731.048	490
731.099	474
731.151	456
731.202	468
731.254	478
731.305	458
731.356	482
731.408	474
731.459	490
731.51	474
731.562	458
731.613	472
731.665	462
731.716	484
731.767	448
731.819	470
731.87	452
731.922	466
731.973	450
732.024	488
732.076	450
732.127	494
732.178	446
732.23	460
732.281	470
732.333	452
732.384	484
732.435	468
732.487	468
732.538	468
732.589	428
732.641	472
732.692	470
732.744	440
732.795	456
732.846	438
732.898	456
732.949	474
733	448
733.052	446
733.103	478
733.154	460
733.206	456
733.257	460
733.309	476
733.36	464
733.411	466
733.463	440
733.514	460
733.565	472
733.617	444
733.668	446
733.719	462
733.771	458
733.822	456
733.873	462
733.925	456
733.976	464
734.028	452
734.079	444
734.13	460
734.182	448
734.233	446
734.284	454
734.336	460
734.387	460
734.438	448
734.49	440
734.541	442
734.592	454
734.644	458
734.695	476
734.747	442
734.798	450
734.849	470
734.901	442
734.952	454
735.003	450
735.055	450
735.106	448
735.157	444
735.209	458
735.26	440
735.311	462
735.363	460
735.414	458
735.465	456
735.517	444
735.568	460
735.619	464
735.671	452
735.722	444
735.773	434
735.825	462
735.876	452
735.927	442
735.979	462
736.03	474
736.081	446
736.133	440
736.184	446
736.235	430
736.287	448
736.338	454
736.389	458
736.441	452
736.492	460
736.543	438
736.595	458
736.646	458
736.697	454
736.749	464
736.8	438
736.851	482
736.903	438
736.954	464
737.005	458
737.057	466
737.108	448
737.159	442
737.211	470
737.262	446
737.313	460
737.365	480
737.416	468
737.467	476
737.518	468
737.57	462
737.621	466
737.672	468
737.724	444
737.775	450
737.826	460
737.878	474
737.929	464
737.98	466
738.032	442
738.083	478
738.134	458
738.186	466
738.237	458
738.288	466
738.339	462
738.391	478
738.442	438
738.493	474
738.545	452
738.596	450
738.647	466
738.699	458
738.75	466
738.801	438
738.853	446
738.904	440
738.955	440
739.006	442
739.058	452
739.109	458
739.16	450
739.212	464
739.263	446
739.314	452
739.366	442
739.417	462
739.468	466
739.519	452
739.571	422
739.622	426
739.673	450
739.725	430
739.776	448
739.827	418
739.878	442
739.93	420
739.981	428
740.032	424
740.084	436
740.135	446
740.186	460
740.237	446
740.289	450
740.34	458
740.391	440
740.443	420
740.494	428
740.545	434
740.596	448
740.648	418
740.699	426
740.75	416
740.802	424
740.853	450
740.904	440
740.956	410
741.007	428
741.058	430
741.109	432
741.161	430
741.212	416
741.263	408
741.314	424
741.366	432
741.417	430
741.468	414
741.52	424
741.571	432
741.622	408
741.673	426
741.725	412
741.776	422
741.827	390
741.878	438
741.93	408
741.981	430
742.032	424
742.083	418
742.135	438
742.186	422
742.237	404
742.289	430
742.34	390
742.391	416
742.442	390
742.494	428
742.545	400
742.596	398
742.647	422
742.699	404
742.75	408
742.801	424
742.852	418
742.904	410
742.955	404
743.006	402
743.057	410
743.109	410
743.16	414
743.211	412
743.263	390
743.314	406
743.365	402
743.416	402
743.468	410
743.519	412
743.57	392
743.621	386
743.672	408
743.724	404
743.775	414
743.826	390
743.878	410
743.929	416
743.98	408
744.031	398
744.083	382
744.134	404
744.185	398
744.236	408
744.287	394
744.339	398
744.39	402
744.441	384
744.492	384
744.544	408
744.595	392
744.646	404
744.697	390
744.749	392
744.8	404
744.851	386
744.902	380
744.954	390
745.005	394
745.056	394
745.107	394
745.159	402
745.21	390
745.261	396
745.312	366
745.363	380
745.415	382
745.466	386
745.517	364
745.568	388
745.62	364
745.671	370
745.722	368
745.773	386
745.824	392
745.876	370
745.927	382
745.978	360
746.029	374
746.081	372
746.132	394
746.183	378
746.234	382
746.285	392
746.337	390
746.388	372
746.439	390
746.49	378
746.542	374
746.593	378
746.644	384
746.695	360
746.746	374
746.798	380
746.849	360
746.9	372
746.951	362
747.003	384
747.054	362
747.105	378
747.156	376
747.207	386
747.259	370
747.31	358
747.361	370
747.412	380
747.463	384
747.515	352
747.566	384
747.617	366
747.668	386
747.719	386
747.771	356
747.822	378
747.873	372
747.924	398
747.975	360
748.027	382
748.078	376
748.129	378
748.18	362
748.231	366
748.283	376
748.334	380
748.385	358
748.436	376
748.487	372
748.539	370
748.59	352
748.641	354
748.692	384
748.743	366
748.795	352
748.846	362
748.897	382
748.948	376
748.999	362
749.05	372
749.102	376
749.153	378
749.204	362
749.255	382
749.306	374
749.358	348
749.409	356
749.46	358
749.511	382
749.562	376
749.614	362
749.665	356
749.716	370
749.767	372
749.818	370
749.869	368
749.921	352
749.972	366
750.023	368
750.074	362
750.125	364
750.177	354
750.228	340
750.279	346
750.33	362
750.381	352
750.432	338
750.484	358
750.535	380
750.586	340
750.637	342
750.688	364
750.739	354
750.791	356
750.842	350
750.893	336
750.944	352
750.995	364
751.046	354
751.098	346
751.149	358
751.2	358
751.251	362
751.302	348
751.353	354
751.404	348
751.456	332
751.507	340
751.558	338
751.609	352
751.66	342
751.711	350
751.763	334
751.814	344
751.865	362
751.916	338
751.967	352
752.018	352
752.07	338
752.121	342
752.172	354
752.223	354
752.274	352
752.325	338
752.376	342
752.428	334
752.479	360
752.53	342
752.581	334
752.632	356
752.683	350
752.734	368
752.786	336
752.837	344
752.888	352
752.939	332
752.99	330
753.041	338
753.092	348
753.144	340
753.195	318
753.246	354
753.297	332
753.348	344
753.399	346
753.45	330
753.502	350
753.553	346
753.604	354
753.655	354
753.706	346
753.757	334
753.808	336
753.859	322
753.911	344
753.962	308
754.013	328
754.064	312
754.115	336
754.166	344
754.217	344
754.269	320
754.32	330
754.371	320
754.422	336
754.473	328
754.524	316
754.575	326
754.626	324
754.678	346
754.729	334
754.78	324
754.831	318
754.882	318
754.933	328
754.984	334
755.035	342
755.086	300
755.138	348
755.189	326
755.24	306
755.291	322
755.342	320
755.393	326
755.444	306
755.495	304
755.547	338
755.598	322
755.649	316
755.7	314
755.751	318
755.802	344
755.853	300
755.904	312
755.955	318
756.006	316
756.058	322
756.109	316
756.16	322
756.211	320
756.262	316
756.313	322
756.364	332
756.415	326
756.466	318
756.518	318
756.569	316
756.62	340
756.671	308
756.722	330
756.773	302
756.824	316
756.875	306
756.926	330
756.977	308
757.029	328
757.08	318
757.131	322
757.182	304
757.233	312
757.284	288
757.335	322
757.386	336
757.437	306
757.488	312
757.539	316
757.59	304
757.642	314
757.693	298
757.744	314
757.795	306
757.846	314
757.897	312
757.948	304
757.999	300
758.05	306
758.101	308
758.152	308
758.203	316
758.255	306
758.306	288
758.357	312
758.408	324
758.459	316
758.51	309.989
758.561	319.874
758.612	288.539
758.663	298.43
758.714	313.912
758.765	285.454
758.816	304.255
758.867	323.005
758.919	295.879
758.97	304.304
759.021	290.301
759.072	299.293
759.123	295.428
759.174	299.359
759.225	264.315
759.276	310.47
759.327	296.392
759.378	281.92
759.429	296.945
759.48	297.967
759.531	299.007
759.582	284.502
759.633	294.056
759.685	303.075
759.736	288.955
759.787	296.036
759.838	308.518
759.889	298.463
759.94	293.027
759.991	288.553
760.042	287.588
760.093	296.84
760.144	312.336
760.195	293.535
760.246	281.517
760.297	294.392
760.348	292.756
760.399	281.059
760.45	281.636
760.501	295.749
760.552	285.404
760.603	290.652
760.655	291.833
760.706	287.227
760.757	298.51
760.808	288.141
760.859	279.2
760.91	283.058
760.961	285.376
761.012	294.119
761.063	290.927
761.114	283.786
761.165	276.794
761.216	282.457
761.267	277.993
761.318	277.816
761.369	294.283
761.42	284.098
761.471	283.596
761.522	278.64
761.573	298.204
761.624	289.057
761.675	275.725
761.726	282.877
761.777	289.532
761.828	284.639
761.88	285.337
761.931	277.571
761.982	278.598
762.033	275.927
762.084	273.2
762.135	265.047
762.186	286.721
762.237	276.417
762.288	284.817
762.339	282.317
762.39	289.493
762.441	282.593
762.492	274.358
762.543	274.958
762.594	282.315
762.645	270.582
762.696	276.783
762.747	262.64
762.798	276.493
762.849	287.599
762.9	282.162
762.951	272.618
763.002	276.444
763.053	273.865
763.104	273.758
763.155	269.382
763.206	280.201
763.257	283
763.308	283.853
763.359	277.536
763.41	272.414
763.461	274.7
763.512	266.594
763.563	270.268
763.614	276.632
763.665	264.483
763.678	260
763.729	264
763.78	260
763.832	258
763.883	264
763.934	284
763.986	262
764.037	278
764.088	276
764.139	260
764.191	258
764.242	264
764.293	268
764.345	250
764.396	248
764.447	268
764.498	282
764.55	276
764.601	250
764.652	270
764.704	262
764.755	282
764.806	238
764.857	276
764.909	264
764.96	276
765.011	270
765.062	276
765.114	246
765.165	270
765.216	258
765.268	278
765.319	282
765.37	274
765.421	246
765.473	262
765.524	266
765.575	256
765.626	270
765.678	254
765.729	256
765.78	272
765.831	256
765.883	264
765.934	264
765.985	264
766.036	248
766.088	262
766.139	264
766.19	274
766.242	242
766.293	264
766.344	258
766.395	272
766.447	246
766.498	240
766.549	254
766.6	258
766.652	246
766.703	268
766.754	246
766.805	254
766.857	262
766.908	250
766.959	256
767.01	266
767.062	246
767.113	256
767.164	252
767.215	274
767.267	268
767.318	254
767.369	254
767.42	272
767.472	262
767.523	246
767.574	250
767.625	250
767.677	252
767.728	244
767.779	260
767.83	246
767.882	264
767.933	236
767.984	252
768.035	224
768.087	264
768.138	254
768.189	268
768.24	242
768.292	240
768.343	232
768.394	250
768.445	240
768.497	242
768.548	234
768.599	238
768.65	260
768.701	232
768.753	230
768.804	238
768.855	240
768.906	244
768.958	232
769.009	236
769.06	252
769.111	250
769.163	236
769.214	246
769.265	238
769.316	228
769.367	246
769.419	220
769.47	252
769.521	232
769.572	236
769.624	248
769.675	244
769.726	254
769.777	230
769.828	248
769.88	240
769.931	244
769.982	238
770.033	238
770.085	234
770.136	252
770.187	236
770.238	242
770.289	238
770.341	240
770.392	242
770.443	234
770.494	234
770.546	228
770.597	228
770.648	242
770.699	232
770.75	230
770.802	242
770.853	224
770.904	252
770.955	240
771.006	214
771.058	222
771.109	228
771.16	228
771.211	238
771.263	218
771.314	242
771.365	242
771.416	218
771.467	220
771.519	238
771.57	226
771.621	236
771.672	210
771.723	222
771.775	236
771.826	236
771.877	220
771.928	218
771.979	220
772.031	232
772.082	228
772.133	224
772.184	234
772.235	226
772.287	204
772.338	214
772.389	222
772.44	240
772.491	222
772.543	218
772.594	242
772.645	236
772.696	224
772.747	228
772.799	214
772.85	228
772.901	210
772.952	220
773.003	222
773.055	232
773.106	208
773.157	220
773.208	216
773.259	206
773.31	210
773.362	224
773.413	228
773.464	226
773.515	220
773.566	202
773.618	226
773.669	224
773.72	208
773.771	212
773.822	208
773.873	202
773.925	214
773.976	214
774.027	198
774.078	196
774.129	206
774.18	210
774.232	218
774.283	216
774.334	206
774.385	202
774.436	220
774.488	210
774.539	206
774.59	200
774.641	216
774.692	192
774.743	216
774.795	222
774.846	198
774.897	208
774.948	196
774.999	200
775.05	216
775.102	200
775.153	218
775.204	208
775.255	190
775.306	190
775.357	210
775.409	192
775.46	210
775.511	200
775.562	208
775.613	190
775.664	224
775.716	202
775.767	216
775.818	206
775.869	212
775.92	208
775.971	210
776.023	202
776.074	202
776.125	210
776.176	198
776.227	194
776.278	206
776.329	212
776.381	206
776.432	196
776.483	196
776.534	216
776.585	190
776.636	200
776.688	194
776.739	180
776.79	208
776.841	200
776.892	202
776.943	204
776.994	192
777.046	192
777.097	194
777.148	208
777.199	200
777.25	186
777.301	210
777.352	200
777.404	184
777.455	192
777.506	186
777.557	204
777.608	192
777.659	172
777.71	196
777.762	198
777.813	192
777.864	192
777.915	184
777.966	202
778.017	210
778.068	178
778.12	184
778.171	208
778.222	194
778.273	200
778.324	172
778.375	194
778.426	190
778.477	202
778.529	190
778.58	178
778.631	192
778.682	198
778.733	190
778.784	200
778.835	204
778.886	176
778.938	188
778.989	188
779.04	188
779.091	194
779.142	186
779.193	180
779.244	178
779.295	190
779.347	186
779.398	186
779.449	198
779.5	194
779.551	164
779.602	192
779.653	182
779.704	200
779.755	178
779.807	184
779.858	176
779.909	190
779.96	182
780.011	190
780.062	184
780.113	180
780.164	174
780.216	186
780.267	196
780.318	188
780.369	168
780.42	188
780.471	198
780.522	186
780.573	172
780.624	178
780.675	184
780.727	190
780.778	178
780.829	182
780.88	198
780.931	190
780.982	164
781.033	184
781.084	174
781.135	180
781.187	174
781.238	166
781.289	178
781.34	184
781.391	172
781.442	180
781.493	176
781.544	174
781.595	176
781.646	184
781.698	184
781.749	180
781.8	164
781.851	174
781.902	174
781.953	180
782.004	178
782.055	176
782.106	178
782.157	176
782.208	164
782.26	170
782.311	172
782.362	170
782.413	174
782.464	168
782.515	184
782.566	170
782.617	174
782.668	172
782.719	184
782.77	168
782.821	174
782.872	166
782.924	184
782.975	174
783.026	160
783.077	172
783.128	172
783.179	164
783.23	168
783.281	160
783.332	168
783.383	178
783.434	166
783.485	158
783.536	166
783.588	152
783.639	174
783.69	158
783.741	170
783.792	168
783.843	174
783.894	162
783.945	166
783.996	168
784.047	168
784.098	164
784.149	174
784.2	174
784.252	176
784.303	156
784.354	172
784.405	170
784.456	186
784.507	168
784.558	174
784.609	170
784.66	188
784.711	154
784.762	150
784.813	146
784.864	170
784.915	150
784.966	166
785.017	150
785.068	166
785.12	154
785.171	158
785.222	170
785.273	180
785.324	164
785.375	174
785.426	156
785.477	148
785.528	158
785.579	140
785.63	168
785.681	156
785.732	160
785.783	152
785.834	162
785.885	162
785.936	160
785.987	148
786.038	152
786.089	152
786.141	164
786.192	158
786.243	162
786.294	162
786.345	170
786.396	154
786.447	160
786.498	150
786.549	154
786.6	160
786.651	160
786.702	164
786.753	150
786.804	156
786.855	168
786.906	154
786.957	150
787.008	160
787.059	152
787.11	170
787.161	162
787.212	148
787.263	154
787.314	162
787.365	150
787.416	138
787.467	150
787.518	158
787.57	154
787.621	156
787.672	150
787.723	156
787.774	150
787.825	144
787.876	168
787.927	142
787.978	158
788.029	142
788.08	152
788.131	152
788.182	150
788.233	146
788.284	144
788.335	148
788.386	158
788.437	146
788.488	144
788.539	134
788.59	158
788.641	146
788.692	148
788.743	158
788.794	144
788.845	144
788.896	150
788.947	156
788.998	152
789.049	146
789.1	156
789.151	158
789.202	160
789.253	146
789.304	138
789.355	146
789.406	150
789.457	146
789.508	150
789.559	142
789.61	158
789.661	156
789.712	126
789.763	152
789.814	160
789.865	144
789.916	128
789.967	146
790.018	152
790.069	142
790.12	122
790.171	152
790.222	156
790.273	130
790.324	142
790.375	146
790.426	134
790.477	140
790.528	142
790.579	150
790.63	132
790.681	146
790.732	140
790.783	136
790.834	152
790.885	142
790.936	130
790.987	140
791.038	146
791.089	150
791.14	134
791.191	144
791.242	140
791.293	144
791.344	136
791.395	136
791.446	140
791.497	138
791.548	134
791.599	136
791.65	140
791.701	142
791.752	134
791.803	138
791.854	136
791.905	136
791.956	136
792.007	140
792.058	142
792.109	136
792.16	132
792.211	146
792.262	142
792.313	132
792.363	136
792.414	146
792.465	134
792.516	136
792.567	124
792.618	136
792.669	140
792.72	128
792.771	132
792.822	138
792.873	134
792.924	132
792.975	122
793.026	128
793.077	132
793.128	140
793.179	122
793.23	132
793.281	134
793.332	126
793.383	138
793.434	124
793.485	140
793.536	144
793.587	138
793.638	126
793.689	130
793.74	138
793.79	128
793.841	130
793.892	128
793.943	128
793.994	138
794.045	122
794.096	136
794.147	142
794.198	126
794.249	114
794.3	132
794.351	130
794.402	126
794.453	124
794.504	126
794.555	126
794.606	124
794.657	120
794.708	122
794.758	130
794.809	126
794.86	122
794.911	130
794.962	118
795.013	132
795.064	120
795.115	132
795.166	118
795.217	132
795.268	122
795.319	128
795.37	126
795.421	132
795.472	108
795.523	124
795.573	138
795.624	130
795.675	124
795.726	130
795.777	124
795.828	134
795.879	124
795.93	128
795.981	120
796.032	124
796.083	130
796.134	122
796.185	124
796.236	126
796.286	116
796.337	118
796.388	124
796.439	120
796.49	122
796.541	122
796.592	128
796.643	120
796.694	118
796.745	128
796.796	122
796.847	122
796.897	114
796.948	118
796.999	124
797.05	114
797.101	116
797.152	118
797.203	118
797.254	120
797.305	114
797.356	104
797.407	132
797.458	128
797.508	116
797.559	120
797.61	130
797.661	118
797.712	112
797.763	114
797.814	112
797.865	116
797.916	116
797.967	118
798.018	118
798.068	126
798.119	124
798.17	116
798.221	106
798.272	118
798.323	120
798.374	108
798.425	124
798.476	120
798.526	126
798.577	112
798.628	122
798.679	110
798.73	132
798.781	104
798.832	116
798.883	100
798.934	116
798.984	118
799.035	126
799.086	114
799.137	102
799.188	112
799.239	112
799.29	120
799.341	116
799.392	118
799.443	104
799.493	114
799.544	110
799.595	110
799.646	118
799.697	118
799.748	116
799.799	100
799.85	112
799.9	110
799.951	116
800.002	106
800.053	126
800.104	128
800.155	112
800.206	108
800.257	114
800.307	102
800.358	104
800.409	92
800.46	120
800.511	110
800.562	114
800.613	106
800.664	118
800.714	110
800.765	120
800.816	102
800.867	100
800.918	104
800.969	114
801.02	114
801.07	94
801.121	112
801.172	110
801.223	112
801.274	108
801.325	118
801.376	110
801.427	100
801.477	98
801.528	116
801.579	114
801.63	106
801.681	100
801.732	112
801.783	108
801.833	104
801.884	112
801.935	102
801.986	100
802.037	106
802.088	98
802.139	112
802.189	112
802.24	102
802.291	94
802.342	116
802.393	102
802.444	104
802.495	100
802.545	110
802.596	114
802.647	108
802.698	102
802.749	110
802.8	102
802.85	108
802.901	96
802.952	114
803.003	96
803.054	102
803.105	102
803.155	122
803.206	104
803.257	106
803.308	96
803.359	110
803.41	112
803.46	112
803.511	88
803.562	110
803.613	98
803.664	100
803.715	98
803.765	110
803.816	104
803.867	100
803.918	98
803.969	106
804.02	102
804.07	94
804.121	104
804.172	88
804.223	94
804.274	106
804.325	98
804.375	100
804.426	108
804.477	102
804.528	94
804.579	98
804.63	112
804.68	110
804.731	92
804.782	92
804.833	100
804.884	98
804.934	92
804.985	92
805.036	92
805.087	100
805.138	88
805.188	96
805.239	100
805.29	100
805.341	98
805.392	96
805.443	96
805.493	95.9867
805.544	107.801
805.595	82.3331
805.646	103.669
805.697	99.7723
805.747	92.0588
805.798	95.9877
805.849	99.1431
805.9	89.8704
805.951	96.078
806.001	92.8257
806.052	99.4119
806.103	103.114
806.154	94.3276
806.205	99.2537
806.255	102.672
806.306	102.618
806.357	94.8097
806.408	90.784
806.459	95.7237
806.509	98.1282
806.56	100.32
806.611	96
806.662	93.8409
806.713	92.3425
806.763	86.2664
806.814	85.5897
806.865	97.6257
806.916	93.1731
806.967	87.906
807.017	82.6114
807.068	100.995
807.119	95.557
807.17	95.1937
807.22	90.5095
807.271	89.941
807.322	93.7794
807.373	94.1847
807.424	91.8931
807.474	98.4994
807.525	92.285
807.576	93.9831
807.627	95.0197
807.678	92.0782
807.728	96.7559
807.779	94.2157
807.83	84.5665
807.881	90.9768
807.931	93.3566
807.982	94.2976
808.033	90.3377
808.084	95.6497
808.135	92.1734
808.185	94.439
808.236	85.1172
808.287	92.3691
808.338	80.4926
808.388	94.4261
808.439	86.5695
808.49	90.8039
808.541	90.8911
808.591	91.1765
808.642	85.8157
808.693	85.4133
808.744	83.3119
808.795	90.6621
808.845	82.0237
808.896	92.8676
808.947	88.9504
808.998	92.6373
809.048	90.9987
809.099	86.3016
809.15	84.8131
809.201	96.822
809.251	83.5149
809.302	90.5361
809.353	88.4462
809.404	84.3859
809.454	84.3017
809.505	86.172
809.556	87.1171
809.607	99.9197
809.658	87.2469
809.708	91.6294
809.759	81.4557
809.81	85.246
809.861	95.5013
809.911	89.5607
809.962	81.0536
810.013	93.7901
810.064	92.7508
810.114	86.6693
810.165	72.2539
810.216	98.614
810.267	79.9979
810.317	97.6559
810.368	80.2156
810.419	87.2225
810.469	83.1236
810.52	83.7713
810.571	91.3151
810.622	83.0531
810.627	82
810.678	86
810.729	90
810.78	78
810.831	92
810.882	80
810.933	78
810.984	90
811.035	90
811.086	86
811.137	88
811.188	82
811.239	88
811.29	92
811.341	84
811.392	86
811.443	90
811.494	92
811.545	80
811.596	78
811.648	80
811.699	86
811.75	82
811.801	84
811.852	80
811.903	86
811.954	88
812.005	86
812.056	82
812.107	74
812.158	96
812.209	78
812.26	82
812.311	88
812.362	78
812.413	80
812.464	88
812.515	76
812.566	82
812.617	80
812.668	86
812.719	80
812.77	84
812.821	82
812.872	80
812.923	78
812.974	80
813.025	78
813.076	86
813.127	88
813.178	74
813.229	80
813.28	82
813.331	78
813.382	80
813.433	76
813.484	80
813.535	82
813.586	72
813.637	88
813.688	78
813.739	70
813.79	74
813.841	82
813.892	74
813.943	84
813.994	82
814.045	80
814.096	84
814.147	84
814.198	66
814.249	86
814.3	82
814.351	88
814.402	78
814.453	90
814.504	68
814.555	84
814.606	74
814.657	74
814.708	78
814.759	78
814.81	80
814.861	80
814.912	82
814.963	80
815.014	80
815.065	76
815.116	84
815.167	84
815.217	90
815.268	74
815.319	74
815.37	72
815.421	64
815.472	72
815.523	80
815.574	86
815.625	80
815.676	74
815.727	82
815.778	78
815.829	72
815.88	82
815.931	72
815.982	72
816.033	90
816.084	80
816.135	78
816.186	60
816.237	86
816.288	74
816.339	86
816.39	84
816.441	80
816.492	82
816.543	80
816.594	76
816.645	78
816.696	76
816.747	74
816.798	78
816.849	92
816.9	86
816.951	86
817.001	76
817.052	80
817.103	64
817.154	74
817.205	82
817.256	70
817.307	68
817.358	84
817.409	76
817.46	70
817.511	70
817.562	64
817.613	74
817.664	78
817.715	74
817.766	88
817.817	72
817.868	78
817.919	72
817.97	70
818.021	86
818.071	76
818.122	70
818.173	70
818.224	72
818.275	84
818.326	72
818.377	76
818.428	76
818.479	66
818.53	80
818.581	68
818.632	68
818.683	76
818.734	78
818.785	76
818.836	68
818.887	72
818.938	62
818.988	84
819.039	76
819.09	88
819.141	72
819.192	84
819.243	72
819.294	70
819.345	72
819.396	68
819.447	84
819.498	78
819.549	74
819.6	72
819.651	80
819.702	72
819.753	62
819.803	68
819.854	72
819.905	74
819.956	80
820.007	70
820.058	82
820.109	64
820.16	76
820.211	68
820.262	66
820.313	74
820.364	82
820.415	72
820.465	74
820.516	62
820.567	66
820.618	72
820.669	66
820.72	72
820.771	72
820.822	68
820.873	80
820.924	68
820.975	64
821.026	60
821.076	76
821.127	68
821.178	72
821.229	62
821.28	84
821.331	76
821.382	72
821.433	70
821.484	72
821.535	66
821.586	74
821.637	66
821.687	82
821.738	72
821.789	74
821.84	78
821.891	70
821.942	58
821.993	70
822.044	64
822.095	74
822.146	64
822.196	70
822.247	54
822.298	72
822.349	68
822.4	80
822.451	74
822.502	68
822.553	62
822.604	76
822.655	68
822.706	84
822.756	62
822.807	62
822.858	70
822.909	74
822.96	70
823.011	64
823.062	70
823.113	76
823.164	72
823.214	68
823.265	70
823.316	68
823.367	64
823.418	52
823.469	72
823.52	64
823.571	72
823.622	62
823.672	58
823.723	60
823.774	54
823.825	70
823.876	66
823.927	78
823.978	76
824.029	62
824.08	72
824.13	64
824.181	68
824.232	78
824.283	72
824.334	58
824.385	72
824.436	56
824.487	58
824.537	72
824.588	62
824.639	64
824.69	64
824.741	66
824.792	76
824.843	54
824.893	74
824.944	72
824.995	66
825.046	72
825.097	66
825.148	56
825.199	72
825.25	62
825.3	76
825.351	64
825.402	72
825.453	66
825.504	74
825.555	68
825.606	78
825.657	52
825.707	72
825.758	64
825.809	72
825.86	68
825.911	62
825.962	62
826.013	76
826.063	70
826.114	76
826.165	60
826.216	66
826.267	70
826.318	68
826.369	68
826.419	72
826.47	74
826.521	80
826.572	58
826.623	54
826.674	58
826.725	68
826.775	68
826.826	68
826.877	68
826.928	62
826.979	66
827.03	70
827.08	64
827.131	66
827.182	76
827.233	68
827.284	62
827.335	52
827.386	60
827.436	66
827.487	64
827.538	60
827.589	68
827.64	66
827.691	68
827.741	74
827.792	72
827.843	68
827.894	66
827.945	66
827.996	62
828.046	54
828.097	64
828.148	64
828.199	64
828.25	60
828.301	76
828.351	60
828.402	66
828.453	66
828.504	64
828.555	66
828.606	60
828.656	48
828.707	60
828.758	58
828.809	64
828.86	64
828.911	64
828.961	60
829.012	58
829.063	58
829.114	60
829.165	64
829.216	58
829.266	64
829.317	60
829.368	66
829.419	66
829.47	58
829.52	76
829.571	54
829.622	56
829.673	58
829.724	60
829.774	58
829.825	62
829.876	54
829.927	64
829.978	48
830.029	62
830.079	58
830.13	62
830.181	56
830.232	58
830.283	56
830.333	60
830.384	62
830.435	66
830.486	62
830.537	66
830.587	52
830.638	58
830.689	60
830.74	58
830.791	64
830.841	56
830.892	60
830.943	60
830.994	60
831.045	64
831.095	62
831.146	66
831.197	62
831.248	50
831.299	64
831.349	50
831.4	60
831.451	62
831.502	66
831.553	60
831.603	62
831.654	56
831.705	62
831.756	56
831.807	62
831.857	62
831.908	64
831.959	52
832.01	54
832.061	60
832.111	64
832.162	62
832.213	58
832.264	42
832.315	66
832.365	50
832.416	62
832.467	56
832.518	60
832.568	58
832.619	66
832.67	54
832.721	56
832.772	56
832.822	56
832.873	50
832.924	66
832.975	56
833.025	60
833.076	54
833.127	58
833.178	52
833.229	64
833.279	54
833.33	56
833.381	50
833.432	64
833.482	52
833.533	64
833.584	54
833.635	62
833.685	56
833.736	60
833.787	56
833.838	66
833.889	60
833.939	64
833.99	56
834.041	54
834.092	50
834.142	68
834.193	54
834.244	46
834.295	60
834.345	64
834.396	54
834.447	54
834.498	62
834.548	56
834.599	52
834.65	54
834.701	60
834.751	58
834.802	64
834.853	52
834.904	58
834.954	50
835.005	56
835.056	52
835.107	60
835.157	62
835.208	58
835.259	56
835.31	60
835.36	58
835.411	48
835.462	58
835.513	64
835.563	54
835.614	58
835.665	54
835.716	56
835.766	62
835.817	56
835.868	52
835.919	54
835.969	46
836.02	66
836.071	56
836.122	60
836.172	52
836.223	54
836.274	56
836.325	58
836.375	62
836.426	56
836.477	58
836.528	54
836.578	54
836.629	52
836.68	54
836.73	66
836.781	58
836.832	60
836.883	54
836.933	58
836.984	56
837.035	58
837.086	52
837.136	54
837.187	54
837.238	56
837.288	54
837.339	58
837.39	50
837.441	54
837.491	54
837.542	58
837.593	52
837.643	58
837.694	54
837.745	48
837.796	52
837.846	66
837.897	58
837.948	56
837.999	52
838.049	58
838.1	46
838.151	66
838.201	54
838.252	52
838.303	54
838.354	60
838.404	52
838.455	54
838.506	48
838.556	58
838.607	56
838.658	64
838.708	60
838.759	60
838.81	50
838.861	48
838.911	48
838.962	50
839.013	54
839.063	62
839.114	38
839.165	58
839.216	58
839.266	48
839.317	48
839.368	42
839.418	58
839.469	58
839.52	52
839.57	60
839.621	54
839.672	52
839.722	58
839.773	56
839.824	56
839.875	54
839.925	46
839.976	46
840.027	56
840.077	42
840.128	64
840.179	52
840.229	50
840.28	62
840.331	58
840.381	54
840.432	62
840.483	42
840.534	42
840.584	50
840.635	50
840.686	54
840.736	54
840.787	50
840.838	56
840.888	40
840.939	60
840.99	48
841.04	54
841.091	52
841.142	56
841.192	52
841.243	60
841.294	46
841.344	60
841.395	52
841.446	50
841.496	46
841.547	58
841.598	52
841.648	58
841.699	54
841.75	52
841.8	50
841.851	54
841.902	44
841.952	58
842.003	42
842.054	56
842.104	50
842.155	58
842.206	48
842.256	48
842.307	48
842.358	52
842.408	42
842.459	60
842.51	52
842.56	56
842.611	44
842.662	50
842.712	48
842.763	40
842.814	50
842.864	56
842.915	48
842.966	54
843.016	60
843.067	50
843.118	40
843.168	46
843.219	48
843.269	50
843.32	56
843.371	46
843.421	46
843.472	52
843.523	48
843.573	44
843.624	48
843.675	48
843.725	46
843.776	44
843.827	48
843.877	46
843.928	52
843.979	46
844.029	52
844.08	48
844.13	50
844.181	48
844.232	46
844.282	42
844.333	60
844.384	34
844.434	56
844.485	48
844.536	48
844.586	50
844.637	44
844.687	52
844.738	48
844.789	50
844.839	52
844.89	48
844.941	44
844.991	52
845.042	54
845.092	48
845.143	56
845.194	48
845.244	56
845.295	50
845.346	52
845.396	42
845.447	52
845.497	46
845.548	52
845.599	54
845.649	54
845.7	46
845.75	54
845.801	42
845.852	44
845.902	50
845.953	64
846.004	48
846.054	60
846.105	52
846.155	42
846.206	52
846.257	52
846.307	50
846.358	48
846.409	44
846.459	42
846.51	58
846.56	40
846.611	46
846.661	44
846.712	40
846.763	46
846.813	54
846.864	48
846.915	46
846.965	44
847.016	52
847.066	44
847.117	48
847.168	48
847.218	48
847.269	50
847.319	54
847.37	44
847.421	40
847.471	46
847.522	48
847.572	46
847.623	46
847.674	42
847.724	52
847.775	40
847.825	54
847.876	40
847.926	42
847.977	40
848.028	52
848.078	42
848.129	50
848.179	46
848.23	52
848.281	40
848.331	50
848.382	40
848.432	56
848.483	42
848.534	52
848.584	38
848.635	54
848.685	44
848.736	54
848.786	38
848.837	54
848.888	42
848.938	46
848.989	46
849.039	52
849.09	34
849.14	48
849.191	46
849.242	50
849.292	38
849.343	48
849.393	44
849.444	58
849.494	48
849.545	50
849.596	46
849.646	48
849.697	40
849.747	48
849.798	44
849.848	50
849.899	36
849.95	48
850	40
850.051	42
850.101	48
850.152	42
850.202	42
850.253	44
850.303	32
850.354	42
850.405	50
850.455	44
850.506	42
850.556	42
850.607	40
850.657	44
850.708	48
850.758	38
850.809	52
850.86	38
850.91	52
850.961	38
851.011	46
851.062	46
851.112	44
851.163	48
851.213	48
851.264	46
851.314	44
851.365	44
851.416	46
851.466	44
851.517	44
851.567	42
851.618	54
851.668	38
851.719	42
851.769	38
851.82	44
851.87	40
851.921	42
851.971	36
852.022	56
852.073	44
852.123	54
852.174	46
852.224	36
852.275	44
852.325	49.9412
852.376	34.1792
852.426	51.801
852.477	34.421
852.527	37.492
852.578	32.4416
852.628	46.1287
852.679	36.0076
852.729	41.49
852.78	42.5467
852.831	41.0447
852.881	34.5031
852.932	47.473
852.982	42.7867
853.033	42.0418
853.083	32.6702
853.134	40.2717
853.184	39.0409
853.235	47.8166
853.285	41.3677
853.336	40.3421
853.386	40.8223
853.437	40.9
853.487	39.2475
853.538	40.3363
853.588	40.9637
853.639	40.5918
853.689	38.6173
853.74	47.2121
853.79	44.2026
853.841	39.8997
853.891	46.4651
853.942	39.0906
853.992	44.5446
854.043	39.0022
854.093	39.1774
854.144	44.161
854.194	39.4817
854.245	42.285
854.295	38.8729
854.346	40.76
854.396	43.988
854.447	41.8767
854.497	39.6884
854.548	41.1959
854.598	47.5892
854.649	45.8538
854.699	42.6499
854.75	36.6745
854.8	50.3146
854.851	46.99
854.901	41.775
854.952	39.05
855.002	41.86
855.053	40.2453
855.103	41.153
855.154	35.9798
855.204	41.5909
855.255	41.85
855.305	45.1065
855.356	38.4133
855.406	41.9894
855.457	38.9052
855.507	46.5705
855.558	39.3133
855.608	41.7642
855.659	43.528
855.709	44.9041
855.76	35.7135
855.81	39.7427
855.861	44.292
855.911	37.6139
855.962	38.4875
856.012	47.3922
856.063	43.1312
856.113	44.5625
856.164	40.6197
856.214	43.6386
856.265	44.71
856.315	44.6708
856.366	43.8589
856.416	41.4517
856.467	39.9208
856.517	42.8271
856.568	39.5234
856.618	37.302
856.668	39.7169
856.719	45.3552
856.769	44.0553
856.82	39.7006
856.87	38.7389
856.921	40.7582
856.971	42
857.022	39.7558
857.072	41.1105
857.123	42.1497
857.173	38.0882
857.224	41.6691
857.274	46.0426
857.325	46.7482
857.352	50
857.403	42
857.453	36
857.504	44
857.555	46
857.606	36
857.656	38
857.707	40
857.758	40
857.809	46
857.859	36
857.91	36
857.961	38
858.012	34
858.063	42
858.113	44
858.164	44
858.215	42
858.266	24
858.316	42
858.367	40
858.418	40
858.469	36
858.519	34
858.57	36
858.621	40
858.672	42
858.722	42
858.773	40
858.824	42
858.875	36
858.925	46
858.976	30
859.027	46
859.078	40
859.128	38
859.179	38
859.23	42
859.281	36
859.331	36
859.382	44
859.433	40
859.483	38
859.534	40
859.585	52
859.636	46
859.686	36
859.737	40
859.788	40
859.839	42
859.889	40
859.94	42
859.991	40
860.042	46
860.092	38
860.143	36
860.194	42
860.245	44
860.295	38
860.346	42
860.397	42
860.447	48
860.498	36
860.549	42
860.6	40
860.65	42
860.701	42
860.752	28
860.802	38
860.853	36
860.904	36
860.955	42
861.005	32
861.056	44
861.107	34
861.158	40
861.208	40
861.259	40
861.31	30
861.36	40
861.411	40
861.462	44
861.513	32
861.563	36
861.614	40
861.665	48
861.715	30
861.766	38
861.817	50
861.868	46
861.918	38
861.969	32
862.02	40
862.07	44
862.121	44
862.172	38
862.223	42
862.273	36
862.324	38
862.375	30
862.425	42
862.476	40
862.527	36
862.577	40
862.628	36
862.679	38
862.73	34
862.78	38
862.831	44
862.882	44
862.932	42
862.983	36
863.034	30
863.084	36
863.135	26
863.186	24
863.237	38
863.287	42
863.338	44
863.389	42
863.439	36
863.49	32
863.541	46
863.591	34
863.642	40
863.693	50
863.744	38
863.794	34
863.845	42
863.896	40
863.946	38
863.997	32
864.048	38
864.098	38
864.149	36
864.2	32
864.25	40
864.301	38
864.352	40
864.402	38
864.453	38
864.504	40
864.555	34
864.605	38
864.656	42
864.707	44
864.757	46
864.808	36
864.859	38
864.909	42
864.96	40
865.011	34
865.061	28
865.112	44
865.163	32
865.213	30
865.264	32
865.315	40
865.365	48
865.416	32
865.467	32
865.517	48
865.568	40
865.619	40
865.669	32
865.72	40
865.771	44
865.821	38
865.872	36
865.923	36
865.973	46
866.024	36
866.075	32
866.125	34
866.176	36
866.227	28
866.277	38
866.328	44
866.379	42
866.429	34
866.48	36
866.531	36
866.581	40
866.632	40
866.683	34
866.733	40
866.784	42
866.835	34
866.885	32
866.936	32
866.987	46
867.037	36
867.088	30
867.138	34
867.189	44
867.24	46
867.29	40
867.341	44
867.392	34
867.442	32
867.493	34
867.544	38
867.594	42
867.645	38
867.696	36
867.746	40
867.797	42
867.848	38
867.898	38
867.949	36
867.999	34
868.05	36
868.101	32
868.151	30
868.202	40
868.253	36
868.303	26
868.354	32
868.405	30
868.455	40
868.506	38
868.556	38
868.607	36
868.658	40
868.708	34
868.759	36
868.81	48
868.86	44
868.911	32
868.961	36
869.012	40
869.063	36
869.113	32
869.164	32
869.215	34
869.265	36
869.316	34
869.367	40
869.417	44
869.468	42
869.518	26
869.569	40
869.62	42
869.67	32
869.721	26
869.771	34
869.822	46
869.873	36
869.923	38
869.974	32
870.025	46
870.075	38
870.126	38
870.176	38
870.227	42
870.278	36
870.328	40
870.379	34
870.43	42
870.48	40
870.531	24
870.581	46
870.632	42
870.683	40
870.733	38
870.784	28
870.834	44
870.885	36
870.936	42
870.986	32
871.037	34
871.087	40
871.138	36
871.189	32
871.239	28
871.29	36
871.34	34
871.391	26
871.442	30
871.492	40
871.543	42
871.593	38
871.644	30
871.695	44
871.745	34
871.796	34
871.846	32
871.897	46
871.948	36
871.998	34
872.049	28
872.099	36
872.15	42
872.201	42
872.251	44
872.302	32
872.352	38
872.403	40
872.453	36
872.504	44
872.555	42
872.605	38
872.656	38
872.706	36
872.757	36
872.808	36
872.858	34
872.909	38
872.959	40
873.01	34
873.06	40
873.111	34
873.162	40
873.212	26
873.263	32
873.313	32
873.364	40
873.415	32
873.465	30
873.516	36
873.566	38
873.617	30
873.667	24
873.718	36
873.769	46
873.819	36
873.87	30
873.92	36
873.971	38
874.021	28
874.072	32
874.123	38
874.173	44
874.224	36
874.274	38
874.325	40
874.375	40
874.426	36
874.477	34
874.527	38
874.578	40
874.628	38
874.679	32
874.729	40
874.78	30
874.83	34
874.881	34
874.932	36
874.982	38
875.033	38
875.083	34
875.134	46
875.184	38
875.235	36
875.285	36
875.336	28
875.387	42
875.437	42
875.488	38
875.538	38
875.589	30
875.639	40
875.69	30
875.74	32
875.791	40
875.841	38
875.892	26
875.943	36
875.993	36
876.044	32
876.094	34
876.145	32
876.195	38
876.246	28
876.296	38
876.347	34
876.397	24
876.448	42
876.499	24
876.549	30
876.6	36
876.65	32
876.701	36
876.751	30
876.802	38
876.852	42
876.903	36
876.953	42
877.004	40
877.054	42
877.105	26
877.155	36
877.206	38
877.257	36
877.307	36
877.358	34
877.408	38
877.459	34
877.509	32
877.56	26
877.61	42
877.661	40
877.711	40
877.762	38
877.812	42
877.863	42
877.913	36
877.964	36
878.014	44
878.065	40
878.115	38
878.166	30
878.216	36
878.267	32
878.318	26
878.368	32
878.419	38
878.469	40
878.52	38
878.57	38
878.621	36
878.671	34
878.722	36
878.772	30
878.823	36
878.873	42
878.924	44
878.974	34
879.025	40
879.075	30
879.126	40
879.176	34
879.227	34
879.277	42
879.328	36
879.378	38
879.429	40
879.479	38
879.53	34
879.58	28
879.631	22
879.681	32
879.732	44
879.782	40
879.833	34
879.883	38
879.934	34
879.984	30
880.035	28
880.085	40
880.136	36
880.186	32
880.237	34
880.287	36
880.338	32
880.388	30
880.439	36
880.489	40
880.54	34
880.59	30
880.641	42
880.691	32
880.742	24
880.792	28
880.842	26
880.893	32
880.943	34
880.994	32
881.044	40
881.095	38
881.145	42
881.196	34
881.246	30
881.297	40
881.347	32
881.398	16
881.448	32
881.499	32
881.549	32
881.6	44
881.65	30
881.701	44
881.751	36
881.802	32
881.852	30
881.902	34
881.953	36
882.003	34
882.054	32
882.104	34
882.155	30
882.205	32
882.256	30
882.306	38
882.357	40
882.407	34
882.458	30
882.508	40
882.559	38
882.609	28
882.659	32
882.71	30
882.76	40
882.811	40
882.861	34
882.912	32
882.962	32
883.013	38
883.063	36
883.114	34
883.164	40
883.214	32
883.265	28
883.315	44
883.366	40
883.416	36
883.467	32
883.517	38
883.568	40
883.618	32
883.669	34
883.719	34
883.769	32
883.82	36
883.87	32
883.921	32
883.971	36
884.022	38
884.072	36
884.123	32
884.173	42
884.223	40
884.274	24
884.324	28
884.375	36
884.425	42
884.476	36
884.526	32
884.577	32
884.627	32
884.677	34
884.728	22
884.778	38
884.829	34
884.879	34
884.93	40
884.98	34
885.03	40
885.081	42
885.131	30
885.182	42
885.232	32
885.283	32
885.333	22
885.383	34
885.434	32
885.484	38
885.535	34
885.585	32
885.635	44
885.686	34
885.736	34
885.787	32
885.837	38
885.888	36
885.938	38
885.988	38
886.039	40
886.089	38
886.14	30
886.19	42
886.241	36
886.291	28
886.341	34
886.392	34
886.442	36
886.493	30
886.543	30
886.593	34
886.644	36
886.694	34
886.745	34
886.795	30
886.845	38
886.896	40
886.946	38
886.997	36
887.047	36
887.097	32
887.148	34
887.198	34
887.249	38
887.299	32
887.349	28
887.4	26
887.45	22
887.501	34
887.551	28
887.602	34
887.652	40
887.702	32
887.753	22
887.803	24
887.853	38
887.904	32
887.954	30
888.005	34
888.055	36
888.105	36
888.156	36
888.206	28
888.257	34
888.307	36
888.357	22
888.408	36
888.458	38
888.509	28
888.559	24
888.609	28
888.66	30
888.71	34
888.76	28
888.811	30
888.861	40
888.912	38
888.962	36
889.012	40
889.063	32
889.113	36
889.163	36
889.214	24
889.264	32
889.315	38
889.365	28
889.415	24
889.466	32
889.516	34
889.566	28
889.617	24
889.667	40
889.718	38
889.768	34
889.818	26
889.869	24
889.919	30
889.969	30
890.02	30
890.07	34
890.12	34
890.171	36
890.221	28
890.272	30
890.322	36
890.372	30
890.423	34
890.473	32
890.523	32
890.574	32
890.624	30
890.674	32
890.725	42
890.775	34
890.826	30
890.876	30
890.926	28
890.977	36
891.027	42
891.077	34
891.128	40
891.178	32
891.228	36
891.279	30
891.329	32
891.379	30
891.43	24
891.48	20
891.53	30
891.581	36
891.631	24
891.681	28
891.732	30
891.782	30
891.832	30
891.883	28
891.933	38
891.983	32
892.034	36
892.084	28
892.134	30
892.185	30
892.235	32
892.286	28
892.336	38
892.386	30
892.437	34
892.487	28
892.537	34
892.587	36
892.638	26
892.688	30
892.738	30
892.789	38
892.839	30
892.889	24
892.94	36
892.99	32
893.04	36
893.091	22
893.141	32
893.191	30
893.242	24
893.292	30
893.342	36
893.393	28
893.443	32
893.493	26
893.544	26
893.594	36
893.644	34
893.695	30
893.745	32
893.795	36
893.846	32
893.896	26
893.946	30
893.996	34
894.047	34
894.097	32
894.147	36
894.198	28
894.248	30
894.298	30
894.349	28
894.399	30
894.449	30
894.5	32
894.55	38
894.6	26
894.65	34
894.701	26
894.751	26
894.801	26
894.852	30
894.902	32
894.952	24
895.003	36
895.053	28
895.103	30
895.153	34
895.204	34
895.254	32
895.304	28
895.355	22
895.405	30
895.455	30
895.505	20
895.556	30
895.606	34
895.656	34
895.707	26
895.757	28
895.807	34
895.858	38
895.908	14
895.958	26
896.008	32
896.059	36
896.109	26
896.159	32
896.21	32
896.26	34
896.31	22
896.36	26
896.411	28
896.461	32
896.511	28
896.561	34
896.612	36
896.662	28
896.712	20
896.763	24
896.813	32
896.863	30
896.913	16
896.964	28
897.014	34
897.064	32
897.115	28
897.165	30
897.215	32
897.265	38
897.316	22
897.366	24
897.416	34
897.466	32
897.517	34
897.567	30
897.617	34
897.667	36
897.718	28
897.768	24
897.818	28
897.868	26
897.919	34
897.969	28
898.019	32
898.069	34
898.12	34
898.17	28
898.22	30
898.27	30
898.321	28
898.371	30
898.421	26
898.471	24
898.522	30
898.572	24
898.622	24
898.672	32
898.723	30
898.773	26
898.823	38
898.873	28
898.924	34
898.974	26
899.024	28
899.074	34
899.125	30
899.175	26
899.225	22
899.275	36
899.326	26
899.376	28
899.426	26
899.476	36
899.527	32
899.577	24
899.627	20
899.677	28
899.728	30
899.778	24
899.828	24
899.878	34
899.928	28
899.979	26
