#Acq. time (s)=	3
#Accumulations=	2
#Range (nm)=	520...900
#Windows=	8
#Auto scanning=	Off
#Autofocus=	Off
#AutoExposure=	Off
#Spike filter=	Multiple accum.
#Delay time (s)=	0
#Binning=	1
#Readout mode=	Signal
#DeNoise=	Off
#ICS correction=	Off
#Dark correction=	Off
#Inst. Process=	Off
#Detector temperature (°C)=	-59.98
#Instrument=	LabRAM HR Evol
#Detector=	Syncerity OE
#Objective=	x50_VIS
#Grating=	600 (500nm)
#ND Filter=	10%
#Laser=	514nm_Edge
#Hole=	199.981
#Range=	Auto
#StageXY=	Marzhauser
#StageZ=	Marzhauser
#X (µm)=	0
#Y (µm)=	0
#Z (µm)=	0
#Full time(mm:ss)=	1:32
#Project=	
#Sample=	
#Site=	
#Title=	M2_270224
#Remark=	
#Date=	06.03.2024 10:13
#Acquired=	06.03.2024 10:13:36
520.044	30
520.097	34
520.149	22
520.201	24
520.254	32
520.306	20
520.359	24
520.411	28
520.464	30
520.516	26
520.569	28
520.621	22
520.674	28
520.726	32
520.778	20
520.831	26
520.883	28
520.936	24
520.988	24
521.041	28
521.093	28
521.146	26
521.198	14
521.25	26
521.303	34
521.355	28
521.408	24
521.46	26
521.513	22
521.565	32
521.617	20
521.67	26
521.722	28
521.775	26
521.827	24
521.88	30
521.932	26
521.984	30
522.037	22
522.089	28
522.142	30
522.194	24
522.247	10
522.299	20
522.352	26
522.404	26
522.456	30
522.509	14
522.561	30
522.614	24
522.666	24
522.719	22
522.771	32
522.823	32
522.876	32
522.928	12
522.981	28
523.033	28
523.086	22
523.138	22
523.19	20
523.243	30
523.295	24
523.348	18
523.4	28
523.453	30
523.505	30
523.557	24
523.61	30
523.662	28
523.715	30
523.767	18
523.82	32
523.872	24
523.924	26
523.977	22
524.029	30
524.082	36
524.134	26
524.186	22
524.239	26
524.291	26
524.344	28
524.396	20
524.449	30
524.501	30
524.553	30
524.606	18
524.658	24
524.711	32
524.763	22
524.815	16
524.868	28
524.92	30
524.973	26
525.025	24
525.078	28
525.13	32
525.182	22
525.235	22
525.287	18
525.34	32
525.392	30
525.444	24
525.497	22
525.549	32
525.602	26
525.654	20
525.706	14
525.759	34
525.811	28
525.864	20
525.916	18
525.969	26
526.021	30
526.073	22
526.126	30
526.178	22
526.231	28
526.283	18
526.335	32
526.388	26
526.44	22
526.493	26
526.545	22
526.597	26
526.65	24
526.702	22
526.755	20
526.807	34
526.859	32
526.912	26
526.964	26
527.017	26
527.069	24
527.121	28
527.174	24
527.226	32
527.279	32
527.331	26
527.383	22
527.436	30
527.488	22
527.54	30
527.593	24
527.645	34
527.698	22
527.75	28
527.802	24
527.855	26
527.907	26
527.96	26
528.012	20
528.064	30
528.117	30
528.169	20
528.222	22
528.274	30
528.326	24
528.379	30
528.431	20
528.484	30
528.536	28
528.588	30
528.641	20
528.693	30
528.745	30
528.798	30
528.85	22
528.903	26
528.955	30
529.007	24
529.06	14
529.112	36
529.164	30
529.217	28
529.269	16
529.322	30
529.374	30
529.426	30
529.479	20
529.531	26
529.584	26
529.636	22
529.688	14
529.741	28
529.793	30
529.845	28
529.898	22
529.95	28
530.003	36
530.055	32
530.107	24
530.16	20
530.212	24
530.264	24
530.317	12
530.369	28
530.422	32
530.474	36
530.526	28
530.579	20
530.631	28
530.683	32
530.736	18
530.788	20
530.841	30
530.893	30
530.945	30
530.998	18
531.05	32
531.102	30
531.155	30
531.207	24
531.259	24
531.312	30
531.364	30
531.417	26
531.469	24
531.521	30
531.574	24
531.626	24
531.678	30
531.731	30
531.783	26
531.835	26
531.888	28
531.94	26
531.992	32
532.045	26
532.097	28
532.15	22
532.202	24
532.254	22
532.307	32
532.359	26
532.411	32
532.464	20
532.516	26
532.568	26
532.621	30
532.673	26
532.726	28
532.778	28
532.83	26
532.883	24
532.935	26
532.987	28
533.04	28
533.092	22
533.144	30
533.197	24
533.249	26
533.301	20
533.354	28
533.406	22
533.458	34
533.511	24
533.563	24
533.615	32
533.668	28
533.72	26
533.773	24
533.825	28
533.877	22
533.93	28
533.982	30
534.034	30
534.087	24
534.139	32
534.191	20
534.244	30
534.296	28
534.348	26
534.401	24
534.453	32
534.505	22
534.558	20
534.61	28
534.662	40
534.715	34
534.767	32
534.819	32
534.872	32
534.924	38
534.976	34
535.029	22
535.081	36
535.133	34
535.186	30
535.238	26
535.29	38
535.343	32
535.395	32
535.447	30
535.5	36
535.552	30
535.604	30
535.657	22
535.709	40
535.761	34
535.814	38
535.866	26
535.918	34
535.971	26
536.023	30
536.075	24
536.128	34
536.18	32
536.232	32
536.285	26
536.337	28
536.389	34
536.442	34
536.494	20
536.546	32
536.599	28
536.651	36
536.703	26
536.755	36
536.808	26
536.86	28
536.912	26
536.965	36
537.017	32
537.069	34
537.122	28
537.174	32
537.226	28
537.279	30
537.331	28
537.383	30
537.436	32
537.488	32
537.54	22
537.593	30
537.645	38
537.697	34
537.75	26
537.802	24
537.854	24
537.906	34
537.959	18
538.011	30
538.063	40
538.116	40
538.168	30
538.22	26
538.273	34
538.325	32
538.377	26
538.43	32
538.482	36
538.534	36
538.586	28
538.639	24
538.691	26
538.743	28
538.796	26
538.848	26
538.9	30
538.953	36
539.005	30
539.057	22
539.109	32
539.162	26
539.214	30
539.266	22
539.319	40
539.371	32
539.423	24
539.476	24
539.528	36
539.58	30
539.633	26
539.685	26
539.737	38
539.789	32
539.842	28
539.894	24
539.946	36
539.999	30
540.051	26
540.103	30
540.155	38
540.208	30
540.26	32
540.312	24
540.365	28
540.417	32
540.469	34
540.521	28
540.574	30
540.626	38
540.678	34
540.731	28
540.783	34
540.835	36
540.888	32
540.94	26
540.992	30
541.044	30
541.097	26
541.149	30
541.201	36
541.254	30
541.306	30
541.358	18
541.41	34
541.463	24
541.515	32
541.567	28
541.62	30
541.672	34
541.724	34
541.776	24
541.829	24
541.881	32
541.933	30
541.985	26
542.038	24
542.09	28
542.142	32
542.195	28
542.247	32
542.299	34
542.351	38
542.404	32
542.456	28
542.508	24
542.56	32
542.613	24
542.665	28
542.717	28
542.77	34
542.822	28
542.874	26
542.926	32
542.979	28
543.031	26
543.083	26
543.135	32
543.188	34
543.24	26
543.292	30
543.344	34
543.397	32
543.449	32
543.501	26
543.554	36
543.606	28
543.658	26
543.71	26
543.763	32
543.815	34
543.867	36
543.919	28
543.972	36
544.024	26
544.076	34
544.128	24
544.181	40
544.233	32
544.285	26
544.337	30
544.39	38
544.442	36
544.494	28
544.547	20
544.599	32
544.651	34
544.703	34
544.755	26
544.808	26
544.86	36
544.912	32
544.965	28
545.017	34
545.069	36
545.121	30
545.174	24
545.226	38
545.278	42
545.33	36
545.383	30
545.435	34
545.487	32
545.539	40
545.591	30
545.644	32
545.696	38
545.748	32
545.8	24
545.853	30
545.905	36
545.957	34
546.009	28
546.062	36
546.114	38
546.166	28
546.218	30
546.271	24
546.323	34
546.375	28
546.427	30
546.48	32
546.532	40
546.584	36
546.636	28
546.689	30
546.741	36
546.793	34
546.845	24
546.898	32
546.95	32
547.002	28
547.054	36
547.106	26
547.159	34
547.211	34
547.263	38
547.315	30
547.368	36
547.42	34
547.472	32
547.524	30
547.577	40
547.629	34
547.681	30
547.733	32
547.785	34
547.838	36
547.89	36
547.942	30
547.994	42
548.047	34
548.099	30
548.151	24
548.203	34
548.255	34
548.308	42
548.36	30
548.412	30
548.464	38
548.517	32
548.569	30
548.621	38
548.673	36
548.725	40
548.778	38
548.83	40
548.882	38
548.934	38
548.987	24
549.039	38
549.091	32
549.143	40
549.195	34
549.248	42
549.3	36
549.352	34
549.404	36
549.456	32
549.509	42
549.561	36
549.613	36
549.665	42
549.718	46
549.77	42
549.822	32
549.874	38
549.926	44
549.979	38
550.031	34
550.083	38
550.135	46
550.187	44
550.24	36
550.292	32
550.344	42
550.396	30
550.448	30
550.501	36
550.553	48
550.605	38
550.657	40
550.709	40
550.762	40
550.814	44
550.866	42
550.918	36
550.97	54
551.023	48
551.075	54
551.127	42
551.179	52
551.231	42
551.284	48
551.336	48
551.388	56
551.44	54
551.492	56
551.545	56
551.597	64
551.649	58
551.701	60
551.753	64
551.806	76
551.858	80
551.91	84
551.962	80
552.014	102
552.067	108
552.119	130
552.171	140
552.223	154
552.275	206
552.327	266
552.38	392
552.432	824
552.484	1756
552.536	3216
552.588	5668
552.641	10168
552.693	15990
552.745	11774
552.797	5526
552.849	2178
552.901	764
552.954	424
553.006	290
553.058	212
553.11	176
553.162	136
553.215	122
553.267	112
553.319	106
553.371	76
553.423	74
553.475	76
553.528	74
553.58	68
553.632	46
553.684	58
553.736	56
553.788	58
553.841	50
553.893	52
553.945	50
553.997	60
554.049	40
554.102	52
554.154	58
554.206	52
554.258	36
554.31	36
554.362	50
554.414	50
554.467	40
554.519	36
554.571	48
554.623	36
554.675	38
554.727	34
554.78	44
554.832	48
554.884	40
554.936	38
554.988	42
555.04	36
555.093	46
555.145	34
555.197	36
555.249	34
555.301	38
555.353	38
555.406	50
555.458	48
555.51	44
555.562	42
555.614	34
555.666	46
555.719	42
555.771	30
555.823	46
555.875	36
555.927	34
555.979	42
556.031	42
556.084	34
556.136	38
556.188	36
556.24	44
556.292	40
556.344	48
556.396	32
556.449	40
556.501	36
556.553	38
556.605	28
556.657	40
556.709	40
556.762	38
556.814	40
556.866	42
556.918	38
556.97	34
557.022	34
557.074	42
557.127	36
557.179	48
557.231	32
557.283	40
557.335	44
557.387	40
557.439	36
557.492	38
557.544	36
557.596	48
557.648	36
557.7	38
557.752	48
557.804	38
557.856	42
557.909	34
557.961	32
558.013	38
558.065	36
558.117	34
558.169	46
558.221	34
558.273	40
558.326	36
558.378	38
558.43	48
558.482	36
558.534	38
558.586	48
558.638	44
558.691	40
558.743	30
558.795	46
558.847	38
558.899	36
558.951	48
559.003	40
559.055	38
559.108	42
559.16	38
559.212	46
559.264	34
559.316	36
559.368	38
559.42	42
559.472	44
559.525	34
559.577	44
559.629	46
559.681	48
559.733	34
559.785	38
559.837	44
559.889	42
559.941	42
559.994	44
560.046	40
560.098	38
560.15	42
560.202	38
560.254	42
560.306	44
560.358	46
560.41	30
560.463	42
560.515	42
560.567	46
560.619	38
560.671	40
560.723	44
560.775	48
560.827	42
560.879	48
560.932	40
560.984	40
561.036	40
561.088	42
561.14	40
561.192	40
561.244	38
561.296	38
561.348	48
561.4	48
561.453	26
561.505	48
561.557	50
561.609	30
561.661	34
561.713	48
561.765	38
561.817	42
561.869	34
561.921	40
561.974	44
562.026	46
562.078	46
562.13	40
562.182	48
562.234	44
562.286	38
562.338	44
562.39	44
562.442	46
562.494	44
562.547	42
562.599	48
562.651	42
562.703	46
562.755	38
562.807	46
562.859	48
562.911	42
562.963	42
563.015	52
563.067	44
563.12	46
563.172	40
563.224	50
563.276	52
563.328	40
563.38	48
563.432	52
563.484	54
563.536	44
563.588	38
563.64	48
563.692	50
563.744	44
563.797	44
563.849	50
563.901	48
563.953	46
564.005	40
564.057	52
564.109	46
564.161	44
564.213	46
564.265	50
564.317	48
564.369	52
564.421	40
564.474	40
564.526	46
564.578	36
564.63	44
564.682	46
564.734	50
564.786	52
564.838	46
564.89	50
564.942	46
564.994	52
565.046	42
565.098	38
565.15	46
565.202	42
565.255	44
565.307	48
565.359	48
565.411	40
565.463	50
565.515	46
565.567	42
565.619	40
565.671	32
565.723	44
565.775	52
565.827	48
565.879	40
565.931	50
565.983	48
566.035	52
566.087	44
566.139	46
566.192	46
566.244	54
566.296	36
566.348	40
566.4	46
566.452	52
566.504	40
566.556	50
566.608	54
566.66	52
566.712	46
566.764	48
566.816	48
566.868	48
566.92	44
566.972	44
567.024	58
567.076	52
567.128	50
567.18	44
567.232	54
567.285	56
567.337	50
567.389	54
567.441	56
567.493	56
567.545	58
567.597	48
567.649	50
567.701	56
567.753	50
567.805	48
567.857	56
567.909	50
567.961	38
568.013	48
568.065	60
568.117	57.96
568.169	55.9261
568.221	48.0734
568.273	52.0775
568.325	55.8074
568.377	57.7394
568.429	53.9891
568.481	57.25
568.533	57.064
568.585	55.6227
568.637	48.7365
568.69	51.8863
568.742	51.2605
568.794	53.2985
568.846	45.8796
568.898	59.2467
568.95	47.0987
569.002	58.8815
569.054	52.0804
569.106	55.1271
569.158	52.4819
569.21	49.5994
569.262	48.7925
569.314	52.6786
569.366	54.921
569.418	60.2989
569.47	48.3485
569.522	56.2345
569.574	59.1726
569.626	56.5152
569.678	53.494
569.73	56.5163
569.782	57.5002
569.834	57.6018
569.886	53.0534
569.938	52.8121
569.99	53.2468
570.042	53.7348
570.094	48.4935
570.146	55.413
570.198	59.8912
570.25	55.382
570.302	58.6196
570.354	56.8539
570.406	59.5871
570.458	56.95
570.51	49.758
570.562	52.75
570.614	57.428
570.666	51.7254
570.718	59.6578
570.77	55.77
570.822	54.0377
570.874	54.06
570.926	56.3226
570.978	66.9308
571.03	60.4464
571.082	55.4
571.134	55.0448
571.186	58.8425
571.238	58.4423
571.29	58.2363
571.342	60
571.394	59.9673
571.446	62.2444
571.498	56.9532
571.55	59.1022
571.602	62.65
571.654	61.5235
571.706	59.5677
571.758	60.3582
571.81	62.5182
571.862	66.0745
571.914	62.12
571.966	65.4323
572.018	66.8361
572.07	66.35
572.122	63.6841
572.174	58.2326
572.226	65.6439
572.278	70.1067
572.33	65.0082
572.382	65.4421
572.434	66.7279
572.486	68.1654
572.538	66.7635
572.59	74.8865
572.642	72.8989
572.694	71.2821
572.746	72.5953
572.798	63.9979
572.85	77.5146
572.902	67.4539
572.954	69.8364
573.006	67.6616
573.058	82.5686
573.11	81.7004
573.162	77.9014
573.214	77.5554
573.266	86.7444
573.312	78
573.364	70
573.416	60
573.469	86
573.521	82
573.573	72
573.625	70
573.677	92
573.73	80
573.782	98
573.834	86
573.886	88
573.938	102
573.991	92
574.043	88
574.095	104
574.147	92
574.199	92
574.252	92
574.304	98
574.356	100
574.408	104
574.46	96
574.513	102
574.565	104
574.617	106
574.669	102
574.721	102
574.774	106
574.826	104
574.878	98
574.93	114
574.982	122
575.035	122
575.087	116
575.139	120
575.191	112
575.243	128
575.296	104
575.348	112
575.4	112
575.452	124
575.504	102
575.556	124
575.609	128
575.661	120
575.713	122
575.765	120
575.817	112
575.87	124
575.922	122
575.974	108
576.026	112
576.078	120
576.131	130
576.183	114
576.235	124
576.287	124
576.339	106
576.391	114
576.444	102
576.496	108
576.548	106
576.6	110
576.652	112
576.705	116
576.757	104
576.809	100
576.861	104
576.913	96
576.965	108
577.018	104
577.07	112
577.122	108
577.174	106
577.226	106
577.279	98
577.331	96
577.383	104
577.435	86
577.487	100
577.539	100
577.592	98
577.644	86
577.696	96
577.748	92
577.8	96
577.852	76
577.905	100
577.957	98
578.009	90
578.061	90
578.113	96
578.165	94
578.218	90
578.27	88
578.322	98
578.374	90
578.426	84
578.478	92
578.531	88
578.583	94
578.635	94
578.687	74
578.739	88
578.791	92
578.844	100
578.896	84
578.948	88
579	88
579.052	88
579.104	92
579.157	88
579.209	98
579.261	92
579.313	94
579.365	96
579.417	90
579.47	88
579.522	94
579.574	90
579.626	94
579.678	94
579.73	90
579.782	80
579.835	94
579.887	106
579.939	102
579.991	94
580.043	100
580.095	96
580.148	92
580.2	98
580.252	96
580.304	102
580.356	86
580.408	70
580.46	100
580.513	106
580.565	80
580.617	86
580.669	100
580.721	96
580.773	100
580.826	102
580.878	90
580.93	92
580.982	92
581.034	84
581.086	104
581.138	100
581.191	100
581.243	86
581.295	102
581.347	90
581.399	98
581.451	92
581.503	112
581.556	102
581.608	86
581.66	94
581.712	104
581.764	104
581.816	104
581.868	86
581.92	102
581.973	104
582.025	98
582.077	88
582.129	104
582.181	106
582.233	108
582.285	90
582.338	120
582.39	108
582.442	110
582.494	98
582.546	102
582.598	110
582.65	104
582.703	96
582.755	104
582.807	120
582.859	108
582.911	106
582.963	112
583.015	112
583.067	108
583.12	114
583.172	116
583.224	120
583.276	112
583.328	104
583.38	114
583.432	114
583.484	114
583.537	112
583.589	122
583.641	126
583.693	118
583.745	114
583.797	128
583.849	126
583.901	136
583.953	120
584.006	118
584.058	126
584.11	110
584.162	118
584.214	112
584.266	138
584.318	134
584.37	126
584.423	126
584.475	130
584.527	126
584.579	118
584.631	118
584.683	128
584.735	128
584.787	122
584.839	128
584.892	128
584.944	130
584.996	132
585.048	136
585.1	132
585.152	130
585.204	134
585.256	120
585.308	132
585.361	138
585.413	140
585.465	130
585.517	142
585.569	140
585.621	132
585.673	130
585.725	136
585.777	140
585.83	136
585.882	126
585.934	142
585.986	142
586.038	128
586.09	134
586.142	134
586.194	134
586.246	148
586.298	140
586.351	132
586.403	140
586.455	132
586.507	120
586.559	150
586.611	148
586.663	136
586.715	140
586.767	144
586.819	148
586.872	152
586.924	138
586.976	150
587.028	132
587.08	136
587.132	120
587.184	150
587.236	148
587.288	154
587.34	148
587.392	154
587.445	138
587.497	138
587.549	160
587.601	146
587.653	148
587.705	146
587.757	142
587.809	146
587.861	144
587.913	136
587.965	134
588.018	150
588.07	146
588.122	146
588.174	156
588.226	148
588.278	152
588.33	150
588.382	142
588.434	160
588.486	162
588.538	176
588.59	160
588.642	152
588.695	162
588.747	160
588.799	152
588.851	140
588.903	176
588.955	164
589.007	164
589.059	162
589.111	178
589.163	164
589.215	170
589.267	164
589.319	188
589.372	178
589.424	184
589.476	170
589.528	188
589.58	176
589.632	180
589.684	174
589.736	180
589.788	170
589.84	174
589.892	160
589.944	174
589.996	180
590.048	164
590.101	174
590.153	174
590.205	168
590.257	152
590.309	150
590.361	174
590.413	162
590.465	156
590.517	168
590.569	170
590.621	172
590.673	180
590.725	166
590.777	164
590.829	170
590.881	164
590.933	148
590.986	172
591.038	170
591.09	158
591.142	154
591.194	162
591.246	168
591.298	158
591.35	146
591.402	152
591.454	164
591.506	138
591.558	140
591.61	160
591.662	144
591.714	138
591.766	144
591.818	134
591.87	144
591.923	138
591.975	144
592.027	146
592.079	138
592.131	150
592.183	146
592.235	120
592.287	150
592.339	158
592.391	142
592.443	126
592.495	136
592.547	152
592.599	140
592.651	126
592.703	142
592.755	140
592.807	144
592.859	126
592.911	142
592.963	146
593.015	142
593.068	130
593.12	150
593.172	148
593.224	142
593.276	140
593.328	130
593.38	128
593.432	140
593.484	124
593.536	154
593.588	138
593.64	142
593.692	144
593.744	130
593.796	146
593.848	144
593.9	146
593.952	154
594.004	146
594.056	130
594.108	134
594.16	142
594.212	134
594.264	144
594.316	130
594.368	148
594.42	146
594.472	148
594.524	128
594.576	146
594.628	138
594.68	146
594.732	134
594.784	136
594.837	144
594.889	132
594.941	134
594.993	136
595.045	152
595.097	142
595.149	136
595.201	138
595.253	140
595.305	152
595.357	142
595.409	148
595.461	150
595.513	142
595.565	154
595.617	134
595.669	160
595.721	154
595.773	136
595.825	150
595.877	148
595.929	154
595.981	142
596.033	152
596.085	160
596.137	150
596.189	152
596.241	142
596.293	158
596.345	156
596.397	154
596.449	144
596.501	170
596.553	160
596.605	180
596.657	162
596.709	184
596.761	172
596.813	186
596.865	164
596.917	162
596.969	160
597.021	152
597.073	154
597.125	148
597.177	152
597.229	150
597.281	146
597.333	160
597.385	144
597.437	144
597.489	136
597.541	152
597.593	142
597.645	162
597.697	150
597.749	150
597.801	156
597.853	146
597.905	128
597.957	134
598.009	140
598.061	150
598.113	134
598.165	152
598.217	132
598.269	138
598.321	136
598.373	154
598.425	142
598.477	130
598.529	114
598.581	138
598.633	146
598.685	138
598.737	136
598.789	130
598.841	126
598.893	140
598.945	124
598.997	148
599.049	146
599.101	130
599.153	126
599.205	126
599.257	142
599.309	134
599.361	138
599.413	136
599.465	158
599.517	134
599.569	130
599.62	140
599.672	134
599.724	132
599.776	126
599.828	130
599.88	140
599.932	126
599.984	126
600.036	128
600.088	148
600.14	144
600.192	146
600.244	130
600.296	136
600.348	134
600.4	144
600.452	114
600.504	130
600.556	140
600.608	130
600.66	120
600.712	142
600.764	132
600.816	138
600.868	128
600.92	152
600.972	134
601.024	140
601.076	130
601.128	140
601.18	128
601.232	134
601.284	136
601.335	144
601.387	134
601.439	124
601.491	120
601.543	136
601.595	132
601.647	132
601.699	132
601.751	148
601.803	140
601.855	126
601.907	138
601.959	150
602.011	140
602.063	144
602.115	128
602.167	128
602.219	138
602.271	146
602.323	130
602.375	144
602.427	142
602.478	152
602.53	120
602.582	134
602.634	154
602.686	138
602.738	144
602.79	138
602.842	132
602.894	140
602.946	136
602.998	142
603.05	132
603.102	144
603.154	132
603.206	140
603.258	138
603.31	144
603.362	134
603.413	142
603.465	148
603.517	146
603.569	136
603.621	138
603.673	136
603.725	140
603.777	144
603.829	142
603.881	146
603.933	144
603.985	144
604.037	136
604.089	150
604.141	142
604.193	148
604.244	140
604.296	134
604.348	138
604.4	148
604.452	142
604.504	144
604.556	154
604.608	144
604.66	138
604.712	140
604.764	144
604.816	140
604.868	124
604.92	138
604.971	150
605.023	148
605.075	128
605.127	146
605.179	134
605.231	146
605.283	140
605.335	136
605.387	130
605.439	154
605.491	132
605.543	136
605.594	140
605.646	126
605.698	142
605.75	142
605.802	150
605.854	130
605.906	124
605.958	162
606.01	130
606.062	138
606.114	146
606.166	142
606.217	146
606.269	150
606.321	148
606.373	140
606.425	148
606.477	146
606.529	136
606.581	150
606.633	142
606.685	140
606.737	136
606.789	146
606.84	136
606.892	152
606.944	144
606.996	138
607.048	144
607.1	142
607.152	152
607.204	138
607.256	156
607.308	146
607.359	144
607.411	142
607.463	150
607.515	144
607.567	136
607.619	142
607.671	148
607.723	144
607.775	142
607.827	144
607.878	144
607.93	144
607.982	158
608.034	136
608.086	152
608.138	154
608.19	138
608.242	162
608.294	152
608.345	146
608.397	140
608.449	140
608.501	154
608.553	154
608.605	142
608.657	136
608.709	140
608.761	158
608.812	150
608.864	148
608.916	148
608.968	146
609.02	152
609.072	132
609.124	156
609.176	158
609.228	154
609.279	154
609.331	140
609.383	148
609.435	140
609.487	142
609.539	158
609.591	152
609.643	164
609.694	150
609.746	158
609.798	152
609.85	152
609.902	152
609.954	158
610.006	154
610.058	156
610.109	150
610.161	152
610.213	160
610.265	146
610.317	150
610.369	168
610.421	166
610.473	160
610.524	150
610.576	152
610.628	154
610.68	158
610.732	148
610.784	156
610.836	152
610.887	148
610.939	150
610.991	164
611.043	162
611.095	164
611.147	152
611.199	156
611.25	152
611.302	158
611.354	160
611.406	156
611.458	162
611.51	154
611.562	156
611.614	148
611.665	162
611.717	154
611.769	148
611.821	152
611.873	168
611.925	156
611.977	164
612.028	146
612.08	162
612.132	172
612.184	154
612.236	148
612.288	172
612.339	154
612.391	160
612.443	148
612.495	156
612.547	164
612.599	158
612.651	162
612.702	172
612.754	168
612.806	164
612.858	150
612.91	154
612.962	158
613.013	162
613.065	174
613.117	164
613.169	162
613.221	172
613.273	148
613.325	158
613.376	156
613.428	158
613.48	150
613.532	166
613.584	164
613.635	158
613.687	162
613.739	162
613.791	172
613.843	170
613.895	156
613.947	164
613.998	174
614.05	172
614.102	158
614.154	162
614.206	168
614.258	168
614.309	154
614.361	158
614.413	152
614.465	168
614.517	172
614.568	182
614.62	168
614.672	172
614.724	164
614.776	166
614.828	168
614.879	160
614.931	162
614.983	172
615.035	164
615.087	176
615.139	158
615.19	168
615.242	162
615.294	172
615.346	170
615.398	170
615.449	180
615.501	150
615.553	182
615.605	178
615.657	164
615.709	170
615.76	162
615.812	154
615.864	170
615.916	176
615.968	172
616.019	158
616.071	177.704
616.123	183.317
616.175	185.058
616.227	177.476
616.278	169.824
616.33	170.37
616.382	172.522
616.434	164.878
616.486	169.397
616.537	164.573
616.589	163.132
616.641	167.702
616.693	176.024
616.745	163.511
616.797	175.966
616.848	178.429
616.9	183.479
616.952	163.098
617.004	168.556
617.056	179.558
617.107	179.908
617.159	166.282
617.211	158.647
617.263	176.563
617.315	181.576
617.366	175.245
617.418	165.19
617.47	155.742
617.522	170.585
617.573	171.785
617.625	177.615
617.677	177.46
617.729	172.527
617.781	182.636
617.832	163.549
617.884	164.65
617.936	169.632
617.988	174.293
618.04	183.588
618.091	170.155
618.143	174.014
618.195	170.533
618.247	173.965
618.299	180.672
618.35	176.325
618.402	175.626
618.454	175.935
618.506	182.516
618.557	181.989
618.609	174.729
618.661	166.502
618.713	174.527
618.765	181.12
618.816	170.506
618.868	187.322
618.92	173.282
618.972	185.316
619.023	182.134
619.075	165.514
619.127	172.449
619.179	179.509
619.231	182.618
619.282	177.795
619.334	172.876
619.386	182.601
619.438	169.941
619.49	168.932
619.541	173.816
619.593	186.88
619.645	182.842
619.697	165.351
619.748	178.287
619.8	177.91
619.852	178.505
619.904	178.883
619.955	169.486
620.007	170.323
620.059	181.529
620.111	177.227
620.162	167.815
620.214	175.028
620.266	177.684
620.318	177.99
620.37	165.695
620.421	176.619
620.473	186.792
620.525	182.344
620.577	186.061
620.628	174.13
620.68	179.174
620.732	184.412
620.784	182.602
620.835	173.039
620.887	181.525
620.939	173.299
620.991	174.903
621.042	182.552
621.094	189.148
621.146	183.024
621.198	172.043
621.249	175.553
621.269	180
621.321	176
621.373	170
621.425	178
621.477	194
621.529	198
621.581	168
621.633	174
621.685	164
621.737	176
621.789	170
621.841	174
621.893	176
621.945	172
621.997	180
622.049	176
622.101	176
622.153	198
622.205	170
622.257	182
622.309	170
622.361	186
622.413	180
622.465	174
622.517	172
622.569	194
622.621	184
622.673	178
622.725	180
622.776	184
622.828	180
622.88	168
622.932	178
622.984	180
623.036	186
623.088	172
623.14	186
623.192	194
623.244	178
623.296	170
623.348	184
623.4	168
623.452	182
623.504	162
623.556	180
623.608	180
623.66	188
623.712	172
623.764	174
623.816	184
623.868	190
623.92	186
623.972	188
624.024	178
624.076	194
624.128	176
624.18	178
624.232	172
624.284	186
624.336	178
624.388	182
624.44	184
624.492	182
624.544	176
624.596	198
624.648	182
624.699	182
624.751	164
624.803	188
624.855	170
624.907	192
624.959	192
625.011	170
625.063	186
625.115	192
625.167	180
625.219	194
625.271	184
625.323	188
625.375	166
625.427	186
625.479	176
625.531	176
625.583	178
625.635	180
625.687	190
625.739	200
625.791	180
625.843	182
625.895	200
625.946	178
625.998	186
626.05	200
626.102	192
626.154	184
626.206	188
626.258	188
626.31	184
626.362	196
626.414	204
626.466	178
626.518	188
626.57	200
626.622	192
626.674	176
626.726	186
626.778	178
626.83	192
626.882	184
626.934	182
626.985	184
627.037	194
627.089	186
627.141	196
627.193	194
627.245	178
627.297	184
627.349	190
627.401	196
627.453	198
627.505	188
627.557	186
627.609	192
627.661	190
627.713	192
627.765	174
627.817	196
627.868	182
627.92	188
627.972	178
628.024	190
628.076	200
628.128	194
628.18	182
628.232	190
628.284	200
628.336	192
628.388	204
628.44	192
628.492	204
628.544	188
628.596	198
628.647	200
628.699	196
628.751	180
628.803	208
628.855	196
628.907	204
628.959	194
629.011	188
629.063	200
629.115	206
629.167	196
629.219	186
629.271	206
629.322	198
629.374	208
629.426	204
629.478	192
629.53	210
629.582	202
629.634	190
629.686	206
629.738	216
629.79	202
629.842	206
629.894	202
629.945	214
629.997	206
630.049	196
630.101	182
630.153	206
630.205	204
630.257	186
630.309	198
630.361	208
630.413	204
630.465	184
630.517	202
630.568	198
630.62	190
630.672	196
630.724	204
630.776	212
630.828	218
630.88	206
630.932	202
630.984	202
631.036	212
631.088	200
631.14	200
631.191	208
631.243	196
631.295	200
631.347	208
631.399	198
631.451	198
631.503	196
631.555	206
631.607	200
631.659	204
631.71	212
631.762	200
631.814	204
631.866	198
631.918	212
631.97	212
632.022	218
632.074	216
632.126	204
632.178	210
632.229	212
632.281	210
632.333	192
632.385	206
632.437	212
632.489	208
632.541	198
632.593	218
632.645	212
632.696	214
632.748	210
632.8	208
632.852	210
632.904	220
632.956	210
633.008	204
633.06	214
633.112	216
633.164	206
633.215	208
633.267	212
633.319	210
633.371	212
633.423	212
633.475	218
633.527	210
633.579	226
633.63	214
633.682	216
633.734	214
633.786	214
633.838	226
633.89	224
633.942	220
633.994	212
634.046	230
634.097	208
634.149	220
634.201	222
634.253	214
634.305	226
634.357	206
634.409	220
634.461	226
634.512	216
634.564	234
634.616	216
634.668	228
634.72	222
634.772	234
634.824	220
634.876	244
634.927	226
634.979	236
635.031	226
635.083	228
635.135	236
635.187	224
635.239	228
635.291	248
635.342	236
635.394	246
635.446	228
635.498	224
635.55	226
635.602	240
635.654	240
635.705	240
635.757	228
635.809	256
635.861	244
635.913	240
635.965	242
636.017	252
636.068	244
636.12	222
636.172	256
636.224	266
636.276	236
636.328	242
636.38	250
636.431	258
636.483	280
636.535	266
636.587	262
636.639	282
636.691	262
636.743	276
636.794	264
636.846	268
636.898	280
636.95	282
637.002	280
637.054	292
637.106	312
637.157	282
637.209	288
637.261	302
637.313	294
637.365	304
637.417	302
637.469	310
637.52	308
637.572	324
637.624	282
637.676	310
637.728	314
637.78	316
637.831	292
637.883	324
637.935	296
637.987	296
638.039	300
638.091	306
638.143	288
638.194	298
638.246	294
638.298	316
638.35	302
638.402	292
638.454	294
638.505	282
638.557	284
638.609	304
638.661	278
638.713	292
638.765	294
638.816	288
638.868	292
638.92	304
638.972	286
639.024	282
639.076	276
639.127	276
639.179	292
639.231	268
639.283	272
639.335	276
639.387	284
639.438	276
639.49	260
639.542	260
639.594	254
639.646	282
639.698	278
639.749	266
639.801	260
639.853	272
639.905	250
639.957	256
640.008	280
640.06	272
640.112	270
640.164	260
640.216	252
640.268	266
640.319	252
640.371	258
640.423	260
640.475	256
640.527	260
640.578	250
640.63	268
640.682	282
640.734	262
640.786	254
640.838	260
640.889	266
640.941	248
640.993	256
641.045	262
641.097	246
641.148	260
641.2	246
641.252	254
641.304	262
641.356	240
641.408	258
641.459	262
641.511	258
641.563	270
641.615	252
641.667	270
641.718	272
641.77	256
641.822	260
641.874	264
641.926	256
641.977	274
642.029	262
642.081	252
642.133	262
642.185	250
642.236	250
642.288	252
642.34	244
642.392	234
642.444	258
642.495	250
642.547	254
642.599	260
642.651	262
642.703	248
642.754	254
642.806	262
642.858	256
642.91	252
642.962	258
643.013	266
643.065	268
643.117	256
643.169	252
643.221	260
643.272	258
643.324	246
643.376	264
643.428	236
643.479	260
643.531	260
643.583	268
643.635	262
643.687	264
643.738	250
643.79	246
643.842	264
643.894	258
643.946	264
643.997	260
644.049	272
644.101	268
644.153	256
644.205	272
644.256	256
644.308	242
644.36	244
644.412	262
644.463	262
644.515	254
644.567	258
644.619	272
644.671	266
644.722	258
644.774	256
644.826	276
644.878	276
644.929	252
644.981	272
645.033	276
645.085	274
645.136	274
645.188	262
645.24	264
645.292	262
645.344	248
645.395	262
645.447	268
645.499	268
645.551	266
645.602	278
645.654	260
645.706	280
645.758	256
645.81	260
645.861	272
645.913	264
645.965	252
646.017	266
646.068	264
646.12	270
646.172	272
646.224	280
646.275	270
646.327	266
646.379	264
646.431	268
646.482	260
646.534	262
646.586	276
646.638	254
646.689	266
646.741	266
646.793	276
646.845	268
646.896	274
646.948	272
647	268
647.052	278
647.104	280
647.155	272
647.207	268
647.259	284
647.31	274
647.362	262
647.414	252
647.466	262
647.518	270
647.569	268
647.621	290
647.673	260
647.724	268
647.776	272
647.828	280
647.88	284
647.931	258
647.983	270
648.035	272
648.087	264
648.138	282
648.19	284
648.242	278
648.294	266
648.345	270
648.397	282
648.449	282
648.501	268
648.552	294
648.604	280
648.656	270
648.708	268
648.759	280
648.811	286
648.863	282
648.915	272
648.966	260
649.018	256
649.07	272
649.121	280
649.173	272
649.225	282
649.277	276
649.328	266
649.38	280
649.432	296
649.484	282
649.535	284
649.587	280
649.639	284
649.69	272
649.742	280
649.794	284
649.846	290
649.897	276
649.949	288
650.001	284
650.053	290
650.104	282
650.156	280
650.208	274
650.259	294
650.311	280
650.363	274
650.415	288
650.466	270
650.518	280
650.57	294
650.621	284
650.673	286
650.725	296
650.777	286
650.828	280
650.88	292
650.932	268
650.984	296
651.035	282
651.087	280
651.139	276
651.19	288
651.242	298
651.294	270
651.345	300
651.397	300
651.449	282
651.501	290
651.552	280
651.604	312
651.656	296
651.707	294
651.759	294
651.811	300
651.863	282
651.914	296
651.966	280
652.018	288
652.069	284
652.121	278
652.173	290
652.224	296
652.276	304
652.328	294
652.38	296
652.431	308
652.483	294
652.535	296
652.586	308
652.638	302
652.69	298
652.741	318
652.793	312
652.845	298
652.897	298
652.948	278
653	298
653.052	288
653.103	296
653.155	306
653.207	290
653.258	306
653.31	316
653.362	312
653.413	316
653.465	306
653.517	296
653.568	300
653.62	314
653.672	302
653.724	314
653.775	302
653.827	306
653.879	294
653.93	314
653.982	326
654.034	298
654.085	320
654.137	312
654.189	320
654.24	306
654.292	316
654.344	320
654.395	314
654.447	326
654.499	318
654.55	330
654.602	310
654.654	326
654.705	314
654.757	334
654.809	302
654.86	304
654.912	324
654.964	318
655.016	308
655.067	334
655.119	300
655.17	332
655.222	330
655.274	322
655.326	314
655.377	332
655.429	314
655.481	304
655.532	314
655.584	334
655.635	316
655.687	320
655.739	328
655.79	330
655.842	318
655.894	312
655.945	320
655.997	328
656.049	308
656.1	330
656.152	320
656.204	318
656.255	322
656.307	328
656.359	330
656.41	326
656.462	336
656.514	344
656.565	322
656.617	342
656.669	340
656.72	332
656.772	346
656.824	344
656.875	346
656.927	342
656.979	332
657.03	346
657.082	340
657.134	332
657.185	332
657.237	328
657.288	344
657.34	352
657.392	342
657.443	354
657.495	340
657.547	338
657.598	326
657.65	330
657.702	324
657.753	348
657.805	346
657.857	348
657.908	350
657.96	342
658.011	326
658.063	358
658.115	362
658.166	336
658.218	356
658.27	362
658.321	348
658.373	328
658.425	336
658.476	350
658.528	352
658.579	344
658.631	364
658.683	354
658.734	366
658.786	338
658.838	358
658.889	362
658.941	348
658.992	358
659.044	356
659.096	332
659.147	376
659.199	338
659.251	320
659.302	358
659.354	340
659.406	354
659.457	362
659.509	356
659.56	334
659.612	346
659.664	346
659.715	366
659.767	350
659.818	340
659.87	360
659.922	350
659.973	344
660.025	348
660.077	360
660.128	360
660.18	338
660.231	336
660.283	348
660.335	362
660.386	358
660.438	322
660.49	342
660.541	350
660.593	364
660.644	336
660.696	342
660.748	346
660.799	356
660.851	340
660.902	346
660.954	366
661.006	366
661.057	342
661.109	334
661.16	364
661.212	348
661.264	348
661.315	348
661.367	362
661.418	336
661.47	362
661.522	330
661.573	370
661.625	356
661.676	344
661.728	342
661.78	358
661.831	334
661.883	338
661.934	356
661.986	332
662.038	364
662.089	338
662.141	334
662.192	352
662.244	354
662.296	318
662.347	328
662.399	346
662.45	342
662.502	358
662.554	356
662.605	370
662.657	338
662.708	326
662.76	352
662.811	354
662.863	360
662.915	346
662.966	354
663.018	350
663.069	342
663.121	326
663.173	352
663.224	360
663.276	358
663.327	334
663.379	360
663.43	348
663.482	358
663.534	352
663.585	334
663.637	348
663.688	360
663.74	359.96
663.792	350.009
663.843	359.99
663.895	343.984
663.946	350.313
663.998	356.867
664.049	362.798
664.101	346.048
664.153	364.596
664.204	339.744
664.256	343.06
664.307	338.552
664.359	347.801
664.41	336.853
664.462	346.745
664.513	363.511
664.565	355.748
664.617	352.533
664.668	353.29
664.72	337.392
664.771	354.538
664.823	355.57
664.874	322.215
664.926	357.839
664.978	356.365
665.029	333.707
665.081	355.81
665.132	341.374
665.184	351.509
665.235	346.749
665.287	350.722
665.339	366.901
665.39	344.43
665.442	334.147
665.493	339.581
665.545	340.796
665.596	356.981
665.648	344.859
665.699	339.646
665.751	351.501
665.802	348.408
665.854	349.585
665.906	352.111
665.957	345.979
666.009	344.976
666.06	336.959
666.112	344.126
666.163	345.077
666.215	344.095
666.266	341.427
666.318	346.845
666.37	356.222
666.421	362.504
666.473	355.051
666.524	348.722
666.576	351.739
666.627	346.704
666.679	341.446
666.73	336.176
666.782	338.292
666.833	344.516
666.885	341.406
666.937	353.334
666.988	352.007
667.04	334.207
667.091	357.013
667.143	348.935
667.194	344.874
667.246	351.732
667.297	353.158
667.349	337.624
667.4	335.498
667.452	341.591
667.503	353.698
667.555	347.528
667.607	342.5
667.658	344.808
667.71	343.339
667.761	354.92
667.813	352.094
667.864	344.251
667.916	355.444
667.967	339.47
668.019	341.222
668.07	346.823
668.122	344.876
668.173	349.506
668.225	342.338
668.276	343.976
668.328	344.518
668.379	347.444
668.431	348.767
668.482	349.711
668.534	352.315
668.586	337.76
668.637	351.803
668.689	351.69
668.74	347.048
668.792	351.449
668.843	346.231
668.895	354.481
668.935	356
668.987	366
669.038	358
669.09	358
669.142	344
669.194	346
669.245	374
669.297	350
669.349	360
669.401	354
669.453	350
669.504	360
669.556	348
669.608	356
669.66	358
669.711	344
669.763	320
669.815	362
669.867	350
669.918	348
669.97	332
670.022	358
670.074	332
670.125	364
670.177	332
670.229	350
670.281	332
670.332	352
670.384	352
670.436	346
670.488	342
670.539	344
670.591	334
670.643	344
670.695	358
670.747	338
670.798	340
670.85	340
670.902	358
670.953	344
671.005	336
671.057	356
671.109	342
671.161	352
671.212	338
671.264	342
671.316	348
671.367	344
671.419	354
671.471	328
671.523	342
671.575	356
671.626	358
671.678	336
671.73	350
671.781	350
671.833	350
671.885	362
671.937	356
671.988	362
672.04	348
672.092	348
672.144	358
672.195	360
672.247	364
672.299	334
672.351	348
672.402	362
672.454	336
672.506	354
672.558	352
672.609	376
672.661	352
672.713	340
672.765	374
672.816	344
672.868	362
672.92	368
672.971	340
673.023	356
673.075	336
673.127	356
673.178	366
673.23	338
673.282	366
673.334	358
673.385	342
673.437	356
673.489	348
673.54	340
673.592	368
673.644	368
673.696	356
673.747	362
673.799	364
673.851	344
673.903	348
673.954	346
674.006	358
674.058	378
674.109	370
674.161	354
674.213	374
674.265	358
674.316	346
674.368	356
674.42	354
674.471	358
674.523	332
674.575	342
674.627	362
674.678	366
674.73	342
674.782	352
674.833	366
674.885	372
674.937	366
674.989	334
675.04	366
675.092	366
675.144	380
675.195	362
675.247	372
675.299	364
675.351	366
675.402	342
675.454	364
675.506	368
675.557	358
675.609	372
675.661	378
675.713	376
675.764	366
675.816	360
675.868	346
675.919	378
675.971	380
676.023	388
676.074	354
676.126	380
676.178	364
676.23	376
676.281	368
676.333	384
676.385	368
676.436	342
676.488	346
676.54	398
676.591	366
676.643	346
676.695	370
676.747	400
676.798	380
676.85	360
676.902	358
676.953	362
677.005	396
677.057	370
677.108	364
677.16	386
677.212	372
677.263	372
677.315	376
677.367	358
677.419	380
677.47	366
677.522	362
677.574	372
677.625	374
677.677	340
677.729	356
677.78	386
677.832	374
677.884	374
677.935	352
677.987	372
678.039	386
678.091	370
678.142	372
678.194	382
678.246	354
678.297	370
678.349	360
678.401	374
678.452	386
678.504	374
678.556	350
678.607	362
678.659	372
678.711	356
678.762	392
678.814	372
678.866	370
678.917	362
678.969	358
679.021	370
679.072	380
679.124	376
679.176	366
679.227	386
679.279	370
679.331	380
679.382	362
679.434	370
679.486	372
679.537	382
679.589	360
679.641	372
679.692	374
679.744	372
679.796	356
679.847	378
679.899	390
679.951	382
680.003	380
680.054	352
680.106	372
680.157	370
680.209	374
680.261	370
680.312	382
680.364	358
680.416	360
680.467	374
680.519	378
680.571	366
680.622	380
680.674	376
680.726	372
680.777	386
680.829	360
680.881	378
680.932	368
680.984	378
681.036	386
681.087	378
681.139	378
681.191	362
681.242	374
681.294	374
681.346	350
681.397	376
681.449	368
681.501	382
681.552	364
681.604	368
681.656	372
681.707	380
681.759	370
681.81	386
681.862	374
681.914	350
681.965	400
682.017	408
682.069	398
682.12	370
682.172	376
682.224	380
682.275	398
682.327	368
682.379	372
682.43	400
682.482	378
682.533	366
682.585	388
682.637	376
682.688	392
682.74	394
682.792	354
682.843	378
682.895	384
682.947	376
682.998	386
683.05	392
683.102	386
683.153	370
683.205	386
683.256	386
683.308	380
683.36	376
683.411	384
683.463	376
683.515	390
683.566	368
683.618	370
683.669	378
683.721	394
683.773	350
683.824	388
683.876	370
683.928	380
683.979	356
684.031	370
684.082	376
684.134	374
684.186	368
684.237	376
684.289	372
684.341	380
684.392	360
684.444	374
684.495	374
684.547	380
684.599	376
684.65	388
684.702	392
684.754	352
684.805	370
684.857	392
684.908	382
684.96	386
685.012	366
685.063	366
685.115	374
685.166	370
685.218	372
685.27	388
685.321	378
685.373	366
685.424	378
685.476	370
685.528	370
685.579	376
685.631	394
685.683	378
685.734	378
685.786	374
685.837	358
685.889	362
685.941	394
685.992	358
686.044	366
686.095	360
686.147	382
686.199	370
686.25	366
686.302	372
686.353	382
686.405	384
686.457	366
686.508	354
686.56	362
686.611	382
686.663	362
686.715	356
686.766	392
686.818	374
686.869	382
686.921	360
686.973	394
687.024	364
687.076	372
687.127	374
687.179	358
687.231	374
687.282	372
687.334	354
687.385	364
687.437	376
687.489	378
687.54	360
687.592	370
687.643	370
687.695	342
687.747	364
687.798	336
687.85	388
687.901	366
687.953	370
688.004	378
688.056	366
688.108	376
688.159	350
688.211	364
688.262	364
688.314	394
688.366	368
688.417	362
688.469	366
688.52	354
688.572	366
688.623	364
688.675	388
688.727	374
688.778	372
688.83	358
688.881	376
688.933	384
688.984	366
689.036	364
689.088	358
689.139	378
689.191	350
689.242	380
689.294	354
689.346	390
689.397	368
689.449	370
689.5	386
689.552	366
689.603	394
689.655	348
689.706	368
689.758	380
689.81	352
689.861	362
689.913	364
689.964	358
690.016	364
690.067	356
690.119	374
690.171	356
690.222	358
690.274	378
690.325	368
690.377	366
690.428	362
690.48	340
690.531	378
690.583	362
690.635	356
690.686	350
690.738	366
690.789	360
690.841	362
690.892	350
690.944	358
690.996	380
691.047	356
691.099	348
691.15	358
691.202	368
691.253	382
691.305	348
691.356	370
691.408	350
691.459	364
691.511	358
691.563	356
691.614	344
691.666	370
691.717	338
691.769	364
691.82	374
691.872	348
691.923	356
691.975	344
692.026	360
692.078	348
692.13	348
692.181	358
692.233	344
692.284	366
692.336	352
692.387	336
692.439	360
692.49	346
692.542	344
692.593	356
692.645	362
692.697	374
692.748	378
692.8	358
692.851	348
692.903	362
692.954	338
693.006	344
693.057	354
693.109	356
693.16	362
693.212	362
693.263	352
693.315	364
693.366	348
693.418	342
693.47	366
693.521	364
693.573	368
693.624	336
693.676	360
693.727	358
693.779	352
693.83	344
693.882	352
693.933	344
693.985	362
694.036	352
694.088	368
694.139	340
694.191	346
694.242	330
694.294	358
694.345	340
694.397	346
694.448	330
694.5	352
694.552	362
694.603	322
694.655	354
694.706	340
694.758	364
694.809	360
694.861	328
694.912	342
694.964	368
695.015	336
695.067	366
695.118	366
695.17	352
695.221	378
695.273	326
695.324	356
695.376	352
695.427	340
695.479	354
695.53	336
695.582	330
695.633	366
695.685	356
695.736	328
695.788	352
695.839	342
695.891	360
695.942	338
695.994	328
696.045	346
696.097	340
696.148	334
696.2	358
696.251	344
696.303	340
696.354	346
696.406	334
696.457	350
696.509	360
696.56	340
696.612	368
696.663	350
696.715	346
696.766	344
696.818	342
696.869	352
696.921	358
696.972	332
697.024	344
697.075	352
697.127	352
697.178	348
697.23	324
697.281	342
697.333	346
697.384	334
697.436	348
697.487	326
697.539	346
697.59	328
697.642	324
697.693	338
697.745	338
697.796	346
697.847	344
697.899	326
697.95	330
698.002	338
698.053	338
698.105	338
698.156	336
698.208	332
698.259	336
698.311	352
698.362	348
698.414	338
698.465	354
698.517	344
698.568	322
698.62	344
698.671	342
698.723	342
698.774	346
698.826	320
698.877	334
698.928	326
698.98	322
699.031	312
699.083	336
699.134	332
699.186	338
699.237	350
699.289	338
699.34	324
699.392	344
699.443	334
699.495	338
699.546	320
699.598	330
699.649	330
699.7	344
699.752	328
699.803	326
699.855	322
699.906	340
699.958	324
700.009	354
700.061	326
700.112	316
700.164	342
700.215	342
700.266	326
700.318	332
700.369	350
700.421	332
700.472	338
700.524	322
700.575	318
700.627	334
700.678	326
700.73	304
700.781	332
700.832	334
700.884	340
700.935	334
700.987	342
701.038	326
701.09	316
701.141	320
701.193	332
701.244	338
701.295	310
701.347	328
701.398	334
701.45	330
701.501	326
701.553	332
701.604	328
701.656	330
701.707	332
701.758	328
701.81	348
701.861	338
701.913	330
701.964	292
702.016	320
702.067	338
702.119	320
702.17	332
702.221	336
702.273	332
702.324	336
702.376	332
702.427	336
702.479	338
702.53	328
702.581	320
702.633	336
702.684	346
702.736	340
702.787	330
702.839	322
702.89	332
702.941	326
702.993	330
703.044	328
703.096	308
703.147	354
703.199	330
703.25	328
703.301	322
703.353	326
703.404	288
703.456	340
703.507	332
703.558	328
703.61	314
703.661	312
703.713	322
703.764	302
703.816	304
703.867	332
703.918	332
703.97	336
704.021	316
704.073	334
704.124	342
704.175	312
704.227	302
704.278	302
704.33	334
704.381	326
704.432	314
704.484	340
704.535	334
704.587	326
704.638	316
704.69	322
704.741	320
704.792	314
704.844	306
704.895	312
704.947	322
704.998	314
705.049	318
705.101	314
705.152	290
705.204	338
705.255	324
705.306	324
705.358	336
705.409	310
705.461	308
705.512	314
705.563	316
705.615	308
705.666	312
705.718	320
705.769	336
705.82	322
705.872	316
705.923	312
705.974	294
706.026	310
706.077	322
706.129	316
706.18	310
706.231	328
706.283	308
706.334	308
706.386	320
706.437	318
706.488	310
706.54	308
706.591	306
706.643	314
706.694	320
706.745	314
706.797	304
706.848	318
706.899	308
706.951	304
707.002	304
707.054	320
707.105	312
707.156	300
707.208	300
707.259	332
707.31	314
707.362	314
707.413	314
707.465	298
707.516	310
707.567	302
707.619	278
707.67	310
707.721	302
707.773	306
707.824	308
707.876	314
707.927	320
707.978	306
708.03	312
708.081	318
708.132	298
708.184	298
708.235	318
708.287	304
708.338	320
708.389	302
708.441	310
708.492	312
708.543	302
708.595	312
708.646	294
708.697	316
708.749	288
708.8	298
708.852	274
708.903	280
708.954	298
709.006	294
709.057	294
709.108	296
709.16	298
709.211	274
709.262	294
709.314	310
709.365	286
709.416	294
709.468	272
709.519	310
709.57	294
709.622	308
709.673	308
709.725	324
709.776	306
709.827	306
709.879	296
709.93	284
709.981	300
710.033	294
710.084	294
710.135	302
710.187	316
710.238	318
710.289	292
710.341	298
710.392	308
710.443	280
710.495	296
710.546	294
710.597	284
710.649	310
710.7	302
710.751	308
710.803	310
710.854	284
710.905	294
710.957	296
711.008	312
711.059	286
711.111	298
711.162	300
711.213	298
711.265	294.119
711.316	294.134
711.367	292.185
711.419	294.464
711.47	303.352
711.521	304.145
711.573	300.231
711.624	296.215
711.675	296.816
711.727	286.673
711.778	305.718
711.829	316.223
711.881	311.923
711.932	300.829
711.983	301.548
712.035	321.064
712.086	296.379
712.137	289.439
712.189	298.976
712.24	301.206
712.291	296.479
712.343	296.446
712.394	284.325
712.445	309.726
712.496	292.218
712.548	291.506
712.599	271.415
712.65	297.099
712.702	297.965
712.753	290.371
712.804	295.445
712.856	285.741
712.907	289.989
712.958	297.15
713.01	287.221
713.061	289.551
713.112	300.523
713.164	289.241
713.215	282.177
713.266	300.541
713.317	295.758
713.369	285.351
713.42	303.98
713.471	278.803
713.523	290.34
713.574	288.759
713.625	285.666
713.677	289.177
713.728	291.818
713.779	271.759
713.831	283.015
713.882	282.018
713.933	275.819
713.984	272.016
714.036	278.55
714.087	283.194
714.138	277.266
714.19	277.596
714.241	278.797
714.292	288.561
714.343	283.652
714.395	288
714.446	280.443
714.497	276.819
714.549	277.426
714.6	280.075
714.651	279.893
714.703	283.206
714.754	284.009
714.805	277.852
714.856	278.845
714.908	271.478
714.959	275.909
715.01	281.879
715.062	276.812
715.113	281.369
715.164	290.979
715.215	283.35
715.267	276.663
715.318	277.002
715.369	267.485
715.421	267.385
715.472	278.735
715.523	279.308
715.574	275.008
715.626	279.851
715.677	281.442
715.728	280.581
715.779	279.188
715.831	270.214
715.882	270.835
715.933	269.624
715.985	276.392
716.036	278.156
716.087	261.661
716.138	269.832
716.19	286.528
716.241	288.188
716.292	268.186
716.343	268.521
716.395	282.972
716.433	274
716.485	286
716.536	272
716.588	278
716.639	276
716.691	286
716.742	264
716.794	276
716.845	278
716.897	270
716.948	260
717	276
717.052	268
717.103	276
717.155	266
717.206	266
717.258	268
717.309	276
717.361	268
717.412	256
717.464	274
717.515	280
717.567	270
717.618	262
717.67	264
717.721	272
717.773	280
717.824	272
717.876	270
717.927	272
717.979	280
718.03	272
718.082	264
718.133	266
718.185	246
718.237	264
718.288	272
718.34	262
718.391	260
718.443	258
718.494	258
718.546	270
718.597	272
718.649	242
718.7	270
718.752	274
718.803	266
718.855	272
718.906	268
718.958	264
719.009	262
719.061	274
719.112	266
719.164	262
719.215	266
719.267	264
719.318	264
719.37	276
719.421	258
719.473	260
719.524	272
719.576	276
719.627	260
719.679	256
719.73	262
719.782	246
719.833	258
719.885	270
719.936	262
719.988	268
720.039	248
720.091	262
720.142	274
720.194	274
720.245	254
720.297	254
720.348	256
720.4	266
720.451	268
720.503	260
720.554	278
720.606	260
720.657	268
720.709	244
720.76	254
720.812	260
720.863	252
720.915	246
720.966	252
721.018	260
721.069	256
721.121	242
721.172	242
721.224	264
721.275	236
721.327	230
721.378	250
721.43	258
721.481	246
721.532	246
721.584	260
721.635	262
721.687	256
721.738	240
721.79	264
721.841	250
721.893	252
721.944	262
721.996	220
722.047	232
722.099	252
722.15	242
722.202	246
722.253	238
722.305	254
722.356	250
722.408	246
722.459	264
722.511	242
722.562	230
722.614	248
722.665	256
722.716	252
722.768	268
722.819	240
722.871	236
722.922	250
722.974	242
723.025	234
723.077	240
723.128	240
723.18	258
723.231	240
723.283	240
723.334	244
723.386	254
723.437	242
723.488	246
723.54	250
723.591	254
723.643	254
723.694	252
723.746	238
723.797	244
723.849	238
723.9	258
723.952	250
724.003	244
724.055	252
724.106	246
724.157	238
724.209	250
724.26	248
724.312	236
724.363	234
724.415	254
724.466	242
724.518	244
724.569	252
724.621	236
724.672	232
724.723	236
724.775	234
724.826	230
724.878	232
724.929	230
724.981	232
725.032	234
725.084	234
725.135	240
725.187	220
725.238	246
725.289	240
725.341	248
725.392	252
725.444	240
725.495	242
725.547	234
725.598	238
725.65	250
725.701	240
725.752	228
725.804	236
725.855	246
725.907	230
725.958	230
726.01	230
726.061	234
726.112	220
726.164	236
726.215	226
726.267	250
726.318	236
726.37	222
726.421	236
726.473	230
726.524	240
726.575	232
726.627	218
726.678	220
726.73	232
726.781	226
726.833	232
726.884	232
726.935	224
726.987	238
727.038	218
727.09	250
727.141	230
727.193	240
727.244	226
727.295	222
727.347	228
727.398	236
727.45	242
727.501	232
727.552	246
727.604	222
727.655	226
727.707	226
727.758	228
727.81	224
727.861	230
727.912	222
727.964	228
728.015	222
728.067	234
728.118	220
728.17	216
728.221	220
728.272	214
728.324	238
728.375	222
728.427	226
728.478	252
728.529	240
728.581	240
728.632	222
728.684	206
728.735	228
728.786	232
728.838	230
728.889	218
728.941	226
728.992	224
729.044	228
729.095	214
729.146	228
729.198	222
729.249	216
729.301	210
729.352	220
729.403	216
729.455	206
729.506	240
729.558	228
729.609	222
729.66	224
729.712	230
729.763	204
729.815	230
729.866	228
729.917	214
729.969	214
730.02	214
730.072	208
730.123	210
730.174	236
730.226	212
730.277	218
730.329	220
730.38	198
730.431	216
730.483	196
730.534	212
730.586	224
730.637	230
730.688	210
730.74	208
730.791	210
730.842	224
730.894	206
730.945	220
730.997	210
731.048	238
731.099	210
731.151	210
731.202	222
731.254	210
731.305	218
731.356	204
731.408	206
731.459	200
731.51	204
731.562	212
731.613	204
731.665	218
731.716	202
731.767	202
731.819	220
731.87	216
731.922	206
731.973	210
732.024	212
732.076	216
732.127	214
732.178	206
732.23	190
732.281	222
732.333	214
732.384	202
732.435	218
732.487	184
732.538	202
732.589	196
732.641	194
732.692	220
732.744	224
732.795	204
732.846	218
732.898	210
732.949	214
733	210
733.052	214
733.103	200
733.154	228
733.206	202
733.257	208
733.309	206
733.36	214
733.411	208
733.463	200
733.514	218
733.565	224
733.617	202
733.668	218
733.719	216
733.771	226
733.822	204
733.873	214
733.925	212
733.976	210
734.028	206
734.079	206
734.13	222
734.182	214
734.233	200
734.284	214
734.336	218
734.387	220
734.438	216
734.49	216
734.541	210
734.592	210
734.644	202
734.695	206
734.747	216
734.798	210
734.849	200
734.901	210
734.952	222
735.003	216
735.055	208
735.106	232
735.157	222
735.209	206
735.26	210
735.311	184
735.363	212
735.414	224
735.465	206
735.517	192
735.568	234
735.619	206
735.671	224
735.722	212
735.773	212
735.825	214
735.876	216
735.927	218
735.979	228
736.03	220
736.081	202
736.133	214
736.184	224
736.235	222
736.287	210
736.338	198
736.389	212
736.441	222
736.492	214
736.543	226
736.595	234
736.646	226
736.697	224
736.749	222
736.8	242
736.851	226
736.903	230
736.954	222
737.005	214
737.057	204
737.108	234
737.159	212
737.211	242
737.262	238
737.313	228
737.365	208
737.416	226
737.467	218
737.518	228
737.57	238
737.621	244
737.672	238
737.724	230
737.775	236
737.826	238
737.878	242
737.929	226
737.98	234
738.032	236
738.083	232
738.134	230
738.186	232
738.237	238
738.288	222
738.339	220
738.391	230
738.442	230
738.493	240
738.545	248
738.596	238
738.647	234
738.699	250
738.75	248
738.801	222
738.853	238
738.904	236
738.955	240
739.006	238
739.058	224
739.109	234
739.16	226
739.212	208
739.263	214
739.314	232
739.366	232
739.417	226
739.468	218
739.519	218
739.571	226
739.622	198
739.673	218
739.725	226
739.776	224
739.827	218
739.878	224
739.93	224
739.981	236
740.032	216
740.084	200
740.135	202
740.186	232
740.237	200
740.289	222
740.34	218
740.391	216
740.443	214
740.494	204
740.545	206
740.596	224
740.648	228
740.699	188
740.75	212
740.802	190
740.853	192
740.904	198
740.956	206
741.007	210
741.058	220
741.109	196
741.161	192
741.212	216
741.263	210
741.314	198
741.366	202
741.417	202
741.468	216
741.52	186
741.571	180
741.622	210
741.673	208
741.725	180
741.776	186
741.827	198
741.878	206
741.93	184
741.981	200
742.032	222
742.083	198
742.135	200
742.186	202
742.237	196
742.289	202
742.34	168
742.391	192
742.442	206
742.494	210
742.545	198
742.596	186
742.647	192
742.699	194
742.75	196
742.801	192
742.852	184
742.904	198
742.955	194
743.006	184
743.057	194
743.109	192
743.16	194
743.211	190
743.263	192
743.314	196
743.365	204
743.416	182
743.468	190
743.519	182
743.57	164
743.621	190
743.672	182
743.724	192
743.775	182
743.826	190
743.878	196
743.929	176
743.98	188
744.031	186
744.083	182
744.134	160
744.185	204
744.236	188
744.287	184
744.339	196
744.39	186
744.441	184
744.492	172
744.544	186
744.595	190
744.646	184
744.697	182
744.749	192
744.8	180
744.851	174
744.902	182
744.954	178
745.005	180
745.056	182
745.107	186
745.159	182
745.21	188
745.261	184
745.312	174
745.363	178
745.415	188
745.466	170
745.517	180
745.568	180
745.62	178
745.671	168
745.722	166
745.773	174
745.824	176
745.876	184
745.927	174
745.978	194
746.029	180
746.081	184
746.132	176
746.183	188
746.234	180
746.285	166
746.337	190
746.388	182
746.439	182
746.49	178
746.542	170
746.593	172
746.644	174
746.695	156
746.746	178
746.798	180
746.849	188
746.9	188
746.951	162
747.003	174
747.054	168
747.105	168
747.156	162
747.207	174
747.259	184
747.31	168
747.361	172
747.412	176
747.463	182
747.515	186
747.566	180
747.617	178
747.668	182
747.719	174
747.771	156
747.822	182
747.873	162
747.924	162
747.975	168
748.027	170
748.078	174
748.129	162
748.18	168
748.231	176
748.283	180
748.334	164
748.385	174
748.436	156
748.487	176
748.539	160
748.59	166
748.641	170
748.692	174
748.743	174
748.795	170
748.846	162
748.897	172
748.948	160
748.999	158
749.05	176
749.102	156
749.153	166
749.204	174
749.255	166
749.306	174
749.358	168
749.409	164
749.46	174
749.511	170
749.562	158
749.614	170
749.665	164
749.716	166
749.767	168
749.818	158
749.869	164
749.921	182
749.972	174
750.023	174
750.074	158
750.125	158
750.177	174
750.228	148
750.279	168
750.33	172
750.381	152
750.432	158
750.484	158
750.535	178
750.586	162
750.637	168
750.688	156
750.739	164
750.791	166
750.842	166
750.893	162
750.944	164
750.995	168
751.046	170
751.098	150
751.149	160
751.2	172
751.251	160
751.302	168
751.353	172
751.404	154
751.456	172
751.507	164
751.558	172
751.609	166
751.66	166
751.711	158
751.763	158
751.814	176
751.865	160
751.916	156
751.967	162
752.018	172
752.07	166
752.121	164
752.172	164
752.223	168
752.274	160
752.325	168
752.376	156
752.428	176
752.479	170
752.53	168
752.581	162
752.632	162
752.683	142
752.734	162
752.786	160
752.837	156
752.888	158
752.939	160
752.99	164
753.041	152
753.092	162
753.144	156
753.195	156
753.246	164
753.297	148
753.348	154
753.399	164
753.45	162
753.502	162
753.553	148
753.604	148
753.655	162
753.706	164
753.757	162
753.808	164
753.859	144
753.911	158
753.962	156
754.013	144
754.064	160
754.115	154
754.166	144
754.217	156
754.269	152
754.32	152
754.371	154
754.422	156
754.473	152
754.524	154
754.575	158
754.626	144
754.678	166
754.729	160
754.78	160
754.831	148
754.882	150
754.933	142
754.984	144
755.035	150
755.086	152
755.138	168
755.189	150
755.24	148
755.291	162
755.342	152
755.393	154
755.444	156
755.495	158
755.547	148
755.598	150
755.649	146
755.7	162
755.751	154
755.802	152
755.853	140
755.904	160
755.955	148
756.006	152
756.058	160
756.109	154
756.16	142
756.211	148
756.262	148
756.313	142
756.364	156
756.415	158
756.466	148
756.518	158
756.569	146
756.62	158
756.671	134
756.722	142
756.773	146
756.824	138
756.875	144
756.926	146
756.977	158
757.029	154
757.08	140
757.131	146
757.182	152
757.233	156
757.284	150
757.335	144
757.386	154
757.437	150
757.488	146
757.539	146
757.59	142
757.642	142
757.693	148
757.744	142
757.795	146
757.846	150
757.897	142
757.948	126
757.999	148
758.05	150
758.101	148
758.152	144
758.203	144
758.255	146
758.306	152
758.357	136
758.408	154
758.459	142
758.51	144.028
758.561	142.046
758.612	151.915
758.663	142.219
758.714	145.912
758.765	138.407
758.816	138.411
758.867	132.033
758.919	152.929
758.97	146.436
759.021	140.68
759.072	143.928
759.123	145.864
759.174	137.757
759.225	143.94
759.276	129.939
759.327	131.036
759.378	154.501
759.429	129.589
759.48	136.552
759.531	135.816
759.582	136.254
759.633	141.822
759.685	142.473
759.736	134.291
759.787	131.077
759.838	145.422
759.889	141.54
759.94	149.609
759.991	135.502
760.042	137.111
760.093	139.464
760.144	145.962
760.195	125.822
760.246	127.396
760.297	127.272
760.348	141.571
760.399	139.866
760.45	139.667
760.501	136.775
760.552	135.588
760.603	131.894
760.655	135.389
760.706	137.435
760.757	136.825
760.808	137.336
760.859	140.312
760.91	134.183
760.961	140.754
761.012	132.709
761.063	128.024
761.114	134.989
761.165	136.971
761.216	139.077
761.267	132.554
761.318	148.547
761.369	131.155
761.42	134.466
761.471	140.559
761.522	126.071
761.573	135.052
761.624	138.674
761.675	122.013
761.726	133.61
761.777	137.486
761.828	136.856
761.88	136
761.931	136.561
761.982	138.592
762.033	136.829
762.084	122.79
762.135	134.699
762.186	139.614
762.237	133.483
762.288	135.765
762.339	131.31
762.39	129.496
762.441	132.581
762.492	132.701
762.543	125.407
762.594	129.58
762.645	131.144
762.696	127.077
762.747	126.902
762.798	133.404
762.849	129.449
762.9	136.902
762.951	132.029
763.002	131.575
763.053	132.11
763.104	125.22
763.155	125.647
763.206	124.745
763.257	136.365
763.308	133.542
763.359	124.516
763.41	128.45
763.461	134.711
763.512	129.638
763.563	132.774
763.614	127.991
763.665	129.049
763.678	130
763.729	120
763.78	112
763.832	132
763.883	126
763.934	112
763.986	126
764.037	126
764.088	130
764.139	122
764.191	122
764.242	126
764.293	134
764.345	140
764.396	130
764.447	122
764.498	126
764.55	122
764.601	118
764.652	116
764.704	128
764.755	124
764.806	116
764.857	116
764.909	136
764.96	124
765.011	130
765.062	132
765.114	126
765.165	132
765.216	120
765.268	122
765.319	108
765.37	130
765.421	120
765.473	128
765.524	128
765.575	114
765.626	114
765.678	116
765.729	126
765.78	128
765.831	114
765.883	120
765.934	110
765.985	120
766.036	122
766.088	116
766.139	134
766.19	126
766.242	124
766.293	116
766.344	118
766.395	132
766.447	116
766.498	110
766.549	114
766.6	130
766.652	136
766.703	124
766.754	118
766.805	124
766.857	110
766.908	114
766.959	116
767.01	122
767.062	120
767.113	118
767.164	108
767.215	128
767.267	124
767.318	126
767.369	116
767.42	126
767.472	118
767.523	118
767.574	110
767.625	102
767.677	116
767.728	104
767.779	116
767.83	122
767.882	120
767.933	110
767.984	116
768.035	120
768.087	126
768.138	112
768.189	104
768.24	106
768.292	118
768.343	126
768.394	122
768.445	106
768.497	120
768.548	108
768.599	112
768.65	108
768.701	108
768.753	126
768.804	118
768.855	118
768.906	118
768.958	110
769.009	112
769.06	120
769.111	106
769.163	110
769.214	124
769.265	118
769.316	106
769.367	112
769.419	118
769.47	114
769.521	116
769.572	120
769.624	116
769.675	118
769.726	120
769.777	118
769.828	124
769.88	102
769.931	118
769.982	114
770.033	114
770.085	126
770.136	114
770.187	118
770.238	120
770.289	100
770.341	126
770.392	106
770.443	114
770.494	110
770.546	110
770.597	122
770.648	110
770.699	122
770.75	120
770.802	114
770.853	104
770.904	100
770.955	106
771.006	112
771.058	110
771.109	94
771.16	106
771.211	118
771.263	112
771.314	94
771.365	114
771.416	106
771.467	114
771.519	122
771.57	112
771.621	110
771.672	110
771.723	92
771.775	104
771.826	120
771.877	118
771.928	100
771.979	106
772.031	114
772.082	118
772.133	104
772.184	106
772.235	106
772.287	110
772.338	106
772.389	98
772.44	108
772.491	104
772.543	104
772.594	110
772.645	110
772.696	98
772.747	96
772.799	100
772.85	108
772.901	100
772.952	98
773.003	100
773.055	104
773.106	112
773.157	104
773.208	100
773.259	106
773.31	102
773.362	108
773.413	104
773.464	124
773.515	102
773.566	96
773.618	88
773.669	106
773.72	116
773.771	90
773.822	110
773.873	100
773.925	110
773.976	98
774.027	112
774.078	108
774.129	100
774.18	110
774.232	106
774.283	108
774.334	100
774.385	92
774.436	96
774.488	104
774.539	96
774.59	106
774.641	108
774.692	102
774.743	104
774.795	102
774.846	104
774.897	98
774.948	102
774.999	100
775.05	98
775.102	102
775.153	116
775.204	86
775.255	90
775.306	102
775.357	114
775.409	102
775.46	100
775.511	96
775.562	108
775.613	100
775.664	90
775.716	88
775.767	108
775.818	108
775.869	98
775.92	96
775.971	102
776.023	90
776.074	90
776.125	94
776.176	96
776.227	96
776.278	88
776.329	94
776.381	106
776.432	106
776.483	96
776.534	98
776.585	94
776.636	102
776.688	94
776.739	96
776.79	88
776.841	110
776.892	98
776.943	90
776.994	94
777.046	84
777.097	86
777.148	90
777.199	94
777.25	104
777.301	80
777.352	100
777.404	96
777.455	100
777.506	104
777.557	110
777.608	98
777.659	94
777.71	100
777.762	98
777.813	90
777.864	100
777.915	102
777.966	96
778.017	90
778.068	92
778.12	86
778.171	96
778.222	90
778.273	94
778.324	80
778.375	94
778.426	100
778.477	96
778.529	102
778.58	100
778.631	86
778.682	106
778.733	94
778.784	88
778.835	96
778.886	100
778.938	92
778.989	98
779.04	90
779.091	86
779.142	94
779.193	84
779.244	86
779.295	100
779.347	106
779.398	90
779.449	108
779.5	92
779.551	92
779.602	92
779.653	90
779.704	82
779.755	104
779.807	92
779.858	92
779.909	86
779.96	96
780.011	86
780.062	92
780.113	82
780.164	100
780.216	84
780.267	80
780.318	84
780.369	98
780.42	100
780.471	88
780.522	88
780.573	88
780.624	90
780.675	96
780.727	82
780.778	96
780.829	98
780.88	86
780.931	88
780.982	88
781.033	88
781.084	78
781.135	96
781.187	88
781.238	90
781.289	82
781.34	86
781.391	90
781.442	92
781.493	88
781.544	88
781.595	94
781.646	96
781.698	78
781.749	80
781.8	90
781.851	96
781.902	88
781.953	80
782.004	90
782.055	76
782.106	86
782.157	94
782.208	102
782.26	94
782.311	90
782.362	84
782.413	86
782.464	86
782.515	94
782.566	90
782.617	94
782.668	86
782.719	86
782.77	92
782.821	92
782.872	88
782.924	84
782.975	100
783.026	72
783.077	94
783.128	94
783.179	78
783.23	88
783.281	94
783.332	86
783.383	72
783.434	94
783.485	100
783.536	86
783.588	86
783.639	88
783.69	94
783.741	82
783.792	80
783.843	82
783.894	94
783.945	88
783.996	74
784.047	88
784.098	88
784.149	82
784.2	82
784.252	88
784.303	80
784.354	90
784.405	82
784.456	86
784.507	82
784.558	88
784.609	80
784.66	92
784.711	94
784.762	86
784.813	86
784.864	82
784.915	90
784.966	88
785.017	84
785.068	78
785.12	82
785.171	78
785.222	84
785.273	88
785.324	76
785.375	88
785.426	82
785.477	82
785.528	84
785.579	72
785.63	88
785.681	90
785.732	74
785.783	88
785.834	82
785.885	64
785.936	84
785.987	84
786.038	88
786.089	82
786.141	70
786.192	88
786.243	86
786.294	82
786.345	80
786.396	80
786.447	84
786.498	82
786.549	74
786.6	80
786.651	76
786.702	76
786.753	82
786.804	86
786.855	88
786.906	86
786.957	68
787.008	82
787.059	84
787.11	76
787.161	74
787.212	80
787.263	88
787.314	74
787.365	82
787.416	78
787.467	74
787.518	70
787.57	70
787.621	76
787.672	92
787.723	84
787.774	80
787.825	72
787.876	78
787.927	72
787.978	84
788.029	86
788.08	76
788.131	74
788.182	76
788.233	84
788.284	76
788.335	66
788.386	76
788.437	72
788.488	80
788.539	76
788.59	80
788.641	80
788.692	70
788.743	68
788.794	74
788.845	74
788.896	78
788.947	74
788.998	72
789.049	72
789.1	82
789.151	80
789.202	68
789.253	76
789.304	80
789.355	82
789.406	72
789.457	92
789.508	78
789.559	76
789.61	72
789.661	72
789.712	80
789.763	70
789.814	76
789.865	72
789.916	82
789.967	86
790.018	70
790.069	76
790.12	70
790.171	80
790.222	76
790.273	78
790.324	80
790.375	72
790.426	64
790.477	76
790.528	82
790.579	78
790.63	68
790.681	80
790.732	72
790.783	84
790.834	72
790.885	74
790.936	66
790.987	82
791.038	74
791.089	72
791.14	64
791.191	76
791.242	74
791.293	72
791.344	66
791.395	80
791.446	72
791.497	72
791.548	74
791.599	84
791.65	82
791.701	72
791.752	68
791.803	72
791.854	64
791.905	80
791.956	76
792.007	82
792.058	74
792.109	70
792.16	78
792.211	74
792.262	62
792.313	76
792.363	78
792.414	72
792.465	82
792.516	62
792.567	76
792.618	62
792.669	68
792.72	64
792.771	70
792.822	74
792.873	68
792.924	70
792.975	70
793.026	64
793.077	62
793.128	58
793.179	76
793.23	64
793.281	74
793.332	66
793.383	74
793.434	64
793.485	84
793.536	74
793.587	74
793.638	70
793.689	68
793.74	64
793.79	72
793.841	62
793.892	72
793.943	76
793.994	76
794.045	72
794.096	76
794.147	70
794.198	76
794.249	66
794.3	74
794.351	66
794.402	74
794.453	74
794.504	78
794.555	72
794.606	74
794.657	70
794.708	78
794.758	66
794.809	72
794.86	52
794.911	76
794.962	68
795.013	76
795.064	60
795.115	78
795.166	58
795.217	68
795.268	60
795.319	68
795.37	72
795.421	74
795.472	62
795.523	68
795.573	72
795.624	70
795.675	70
795.726	60
795.777	60
795.828	66
795.879	70
795.93	70
795.981	66
796.032	68
796.083	76
796.134	66
796.185	64
796.236	68
796.286	76
796.337	72
796.388	72
796.439	74
796.49	62
796.541	64
796.592	66
796.643	54
796.694	56
796.745	66
796.796	74
796.847	64
796.897	76
796.948	58
796.999	70
797.05	64
797.101	64
797.152	58
797.203	62
797.254	62
797.305	68
797.356	56
797.407	72
797.458	64
797.508	70
797.559	58
797.61	64
797.661	62
797.712	78
797.763	58
797.814	62
797.865	56
797.916	72
797.967	62
798.018	66
798.068	66
798.119	62
798.17	60
798.221	70
798.272	46
798.323	64
798.374	72
798.425	70
798.476	54
798.526	72
798.577	58
798.628	62
798.679	62
798.73	68
798.781	60
798.832	60
798.883	58
798.934	68
798.984	66
799.035	70
799.086	64
799.137	62
799.188	58
799.239	64
799.29	50
799.341	68
799.392	58
799.443	60
799.493	60
799.544	64
799.595	60
799.646	60
799.697	70
799.748	60
799.799	54
799.85	54
799.9	64
799.951	46
800.002	62
800.053	50
800.104	56
800.155	58
800.206	62
800.257	60
800.307	60
800.358	68
800.409	68
800.46	58
800.511	58
800.562	66
800.613	68
800.664	46
800.714	64
800.765	66
800.816	64
800.867	58
800.918	60
800.969	52
801.02	68
801.07	52
801.121	66
801.172	52
801.223	68
801.274	60
801.325	62
801.376	58
801.427	60
801.477	60
801.528	72
801.579	54
801.63	66
801.681	56
801.732	62
801.783	56
801.833	60
801.884	48
801.935	62
801.986	58
802.037	66
802.088	66
802.139	62
802.189	52
802.24	58
802.291	60
802.342	56
802.393	56
802.444	60
802.495	66
802.545	60
802.596	58
802.647	64
802.698	66
802.749	42
802.8	50
802.85	62
802.901	52
802.952	54
803.003	54
803.054	62
803.105	58
803.155	58
803.206	58
803.257	48
803.308	50
803.359	52
803.41	52
803.46	56
803.511	62
803.562	48
803.613	54
803.664	52
803.715	56
803.765	52
803.816	52
803.867	58
803.918	64
803.969	54
804.02	52
804.07	58
804.121	60
804.172	56
804.223	54
804.274	60
804.325	64
804.375	50
804.426	54
804.477	48
804.528	58
804.579	60
804.63	54
804.68	56
804.731	56
804.782	54
804.833	58
804.884	50
804.934	64
804.985	62
805.036	52
805.087	52
805.138	64
805.188	56
805.239	40
805.29	48
805.341	54
805.392	58
805.443	54
805.493	55.993
805.544	55.9743
805.595	55.9958
805.646	61.5495
805.697	57.6091
805.747	55.6601
805.798	54.1932
805.849	52.6392
805.9	44.7963
805.951	59.2188
806.001	52.0421
806.052	57.1864
806.103	53.7549
806.154	47.0968
806.205	57.5734
806.255	53.167
806.306	45.0317
806.357	56.2197
806.408	60.6543
806.459	46.7469
806.509	57.7383
806.56	52.4216
806.611	53.8529
806.662	49.8574
806.713	51.315
806.763	53.1332
806.814	58.7948
806.865	60.2538
806.916	47.8997
806.967	54.7768
807.017	58.1123
807.068	52.1471
807.119	53.8058
807.17	50.299
807.22	54.9181
807.271	53.922
807.322	49.4682
807.373	54.5329
807.424	55.5098
807.474	50.7566
807.525	51.6571
807.576	52.2368
807.627	52.2851
807.678	54.1852
807.728	52.3716
807.779	47.1373
807.83	55.6318
807.881	52.5481
807.931	53.1185
807.982	53.7144
808.033	49.3475
808.084	55.9804
808.135	52.5791
808.185	56.7328
808.236	48.5681
808.287	57.2312
808.338	55.4546
808.388	51.3311
808.439	50.5067
808.49	57.4217
808.541	50.0702
808.591	50.0294
808.642	51.5983
808.693	59.0072
808.744	43.7941
808.795	50.543
808.845	49.2076
808.896	61.794
808.947	49.0286
808.998	53.1719
809.048	48.8606
809.099	52.0906
809.15	53.6671
809.201	48.0077
809.251	44.124
809.302	51.8683
809.353	58.5694
809.404	44.9135
809.454	45.3801
809.505	51.828
809.556	54.297
809.607	43.648
809.658	47.2701
809.708	59.6138
809.759	42.811
809.81	53.8904
809.861	48.1298
809.911	57.7845
809.962	51.0017
810.013	51.1997
810.064	45.4246
810.114	52.4802
810.165	48.5635
810.216	53.6776
810.267	53.7059
810.317	55.3582
810.368	52.2852
810.419	48.1345
810.469	46.3745
810.52	47.9183
810.571	40.9496
810.622	43.6592
810.627	44
810.678	50
810.729	46
810.78	48
810.831	58
810.882	46
810.933	44
810.984	52
811.035	44
811.086	56
811.137	52
811.188	54
811.239	46
811.29	50
811.341	54
811.392	46
811.443	44
811.494	50
811.545	52
811.596	56
811.648	42
811.699	54
811.75	46
811.801	48
811.852	44
811.903	42
811.954	48
812.005	62
812.056	46
812.107	54
812.158	52
812.209	54
812.26	42
812.311	52
812.362	46
812.413	56
812.464	48
812.515	52
812.566	50
812.617	44
812.668	46
812.719	46
812.77	48
812.821	48
812.872	52
812.923	44
812.974	44
813.025	50
813.076	48
813.127	48
813.178	38
813.229	52
813.28	38
813.331	46
813.382	42
813.433	58
813.484	52
813.535	44
813.586	46
813.637	50
813.688	48
813.739	40
813.79	44
813.841	50
813.892	56
813.943	50
813.994	46
814.045	46
814.096	46
814.147	44
814.198	40
814.249	46
814.3	42
814.351	40
814.402	46
814.453	40
814.504	52
814.555	40
814.606	44
814.657	46
814.708	54
814.759	54
814.81	50
814.861	52
814.912	50
814.963	44
815.014	48
815.065	46
815.116	48
815.167	50
815.217	52
815.268	40
815.319	46
815.37	44
815.421	44
815.472	46
815.523	46
815.574	44
815.625	44
815.676	46
815.727	50
815.778	44
815.829	46
815.88	52
815.931	46
815.982	40
816.033	46
816.084	54
816.135	36
816.186	42
816.237	38
816.288	46
816.339	44
816.39	40
816.441	34
816.492	52
816.543	52
816.594	46
816.645	50
816.696	42
816.747	54
816.798	48
816.849	46
816.9	48
816.951	44
817.001	50
817.052	42
817.103	40
817.154	56
817.205	54
817.256	42
817.307	42
817.358	48
817.409	44
817.46	48
817.511	36
817.562	30
817.613	46
817.664	54
817.715	42
817.766	54
817.817	54
817.868	40
817.919	48
817.97	46
818.021	44
818.071	42
818.122	46
818.173	40
818.224	56
818.275	32
818.326	40
818.377	48
818.428	56
818.479	36
818.53	52
818.581	42
818.632	48
818.683	40
818.734	44
818.785	40
818.836	46
818.887	46
818.938	42
818.988	42
819.039	42
819.09	48
819.141	42
819.192	46
819.243	42
819.294	36
819.345	42
819.396	48
819.447	54
819.498	48
819.549	48
819.6	42
819.651	44
819.702	42
819.753	44
819.803	42
819.854	46
819.905	50
819.956	42
820.007	50
820.058	46
820.109	40
820.16	38
820.211	48
820.262	50
820.313	46
820.364	42
820.415	36
820.465	48
820.516	48
820.567	44
820.618	44
820.669	44
820.72	50
820.771	38
820.822	42
820.873	48
820.924	36
820.975	42
821.026	40
821.076	46
821.127	46
821.178	38
821.229	44
821.28	50
821.331	42
821.382	30
821.433	38
821.484	52
821.535	40
821.586	46
821.637	38
821.687	56
821.738	44
821.789	28
821.84	38
821.891	44
821.942	36
821.993	40
822.044	48
822.095	48
822.146	46
822.196	38
822.247	36
822.298	44
822.349	44
822.4	44
822.451	26
822.502	44
822.553	44
822.604	32
822.655	40
822.706	42
822.756	46
822.807	40
822.858	34
822.909	44
822.96	44
823.011	36
823.062	38
823.113	46
823.164	50
823.214	36
823.265	30
823.316	46
823.367	48
823.418	40
823.469	44
823.52	44
823.571	46
823.622	46
823.672	44
823.723	44
823.774	54
823.825	40
823.876	44
823.927	40
823.978	52
824.029	42
824.08	40
824.13	40
824.181	46
824.232	44
824.283	40
824.334	40
824.385	40
824.436	44
824.487	44
824.537	36
824.588	50
824.639	48
824.69	42
824.741	40
824.792	48
824.843	44
824.893	26
824.944	46
824.995	46
825.046	42
825.097	36
825.148	38
825.199	48
825.25	40
825.3	42
825.351	40
825.402	42
825.453	38
825.504	36
825.555	38
825.606	38
825.657	40
825.707	36
825.758	46
825.809	36
825.86	38
825.911	22
825.962	48
826.013	42
826.063	48
826.114	38
826.165	40
826.216	30
826.267	34
826.318	42
826.369	36
826.419	46
826.47	44
826.521	42
826.572	44
826.623	42
826.674	36
826.725	32
826.775	36
826.826	50
826.877	48
826.928	40
826.979	44
827.03	42
827.08	40
827.131	44
827.182	38
827.233	42
827.284	48
827.335	46
827.386	36
827.436	44
827.487	36
827.538	40
827.589	48
827.64	36
827.691	46
827.741	42
827.792	42
827.843	42
827.894	48
827.945	34
827.996	30
828.046	44
828.097	44
828.148	36
828.199	40
828.25	36
828.301	34
828.351	36
828.402	36
828.453	40
828.504	46
828.555	38
828.606	38
828.656	44
828.707	38
828.758	36
828.809	34
828.86	36
828.911	46
828.961	40
829.012	40
829.063	42
829.114	42
829.165	42
829.216	28
829.266	30
829.317	42
829.368	38
829.419	34
829.47	34
829.52	40
829.571	48
829.622	40
829.673	42
829.724	40
829.774	48
829.825	44
829.876	40
829.927	40
829.978	46
830.029	36
830.079	32
830.13	44
830.181	42
830.232	38
830.283	30
830.333	38
830.384	38
830.435	32
830.486	36
830.537	44
830.587	36
830.638	42
830.689	40
830.74	36
830.791	46
830.841	32
830.892	38
830.943	42
830.994	42
831.045	34
831.095	42
831.146	40
831.197	40
831.248	34
831.299	40
831.349	44
831.4	36
831.451	46
831.502	40
831.553	38
831.603	42
831.654	46
831.705	42
831.756	46
831.807	44
831.857	38
831.908	40
831.959	40
832.01	44
832.061	48
832.111	34
832.162	48
832.213	50
832.264	36
832.315	40
832.365	26
832.416	44
832.467	38
832.518	36
832.568	44
832.619	40
832.67	38
832.721	36
832.772	34
832.822	42
832.873	42
832.924	32
832.975	46
833.025	44
833.076	40
833.127	38
833.178	32
833.229	38
833.279	36
833.33	42
833.381	30
833.432	42
833.482	44
833.533	32
833.584	32
833.635	40
833.685	40
833.736	34
833.787	40
833.838	48
833.889	46
833.939	42
833.99	32
834.041	48
834.092	36
834.142	40
834.193	30
834.244	46
834.295	38
834.345	38
834.396	40
834.447	40
834.498	42
834.548	36
834.599	32
834.65	46
834.701	40
834.751	36
834.802	38
834.853	46
834.904	40
834.954	38
835.005	40
835.056	44
835.107	34
835.157	40
835.208	40
835.259	44
835.31	40
835.36	38
835.411	38
835.462	42
835.513	34
835.563	40
835.614	40
835.665	36
835.716	38
835.766	38
835.817	34
835.868	30
835.919	36
835.969	40
836.02	36
836.071	44
836.122	42
836.172	38
836.223	36
836.274	30
836.325	42
836.375	36
836.426	40
836.477	34
836.528	38
836.578	32
836.629	38
836.68	34
836.73	44
836.781	36
836.832	36
836.883	32
836.933	44
836.984	38
837.035	30
837.086	30
837.136	38
837.187	40
837.238	34
837.288	40
837.339	40
837.39	44
837.441	38
837.491	32
837.542	40
837.593	36
837.643	34
837.694	32
837.745	40
837.796	40
837.846	30
837.897	36
837.948	42
837.999	40
838.049	32
838.1	38
838.151	36
838.201	32
838.252	28
838.303	32
838.354	34
838.404	42
838.455	34
838.506	40
838.556	42
838.607	42
838.658	38
838.708	40
838.759	34
838.81	40
838.861	34
838.911	36
838.962	38
839.013	38
839.063	34
839.114	34
839.165	38
839.216	30
839.266	32
839.317	40
839.368	34
839.418	44
839.469	22
839.52	38
839.57	34
839.621	46
839.672	34
839.722	38
839.773	36
839.824	40
839.875	40
839.925	34
839.976	30
840.027	44
840.077	36
840.128	36
840.179	42
840.229	38
840.28	32
840.331	36
840.381	36
840.432	36
840.483	38
840.534	32
840.584	32
840.635	38
840.686	40
840.736	28
840.787	36
840.838	44
840.888	30
840.939	32
840.99	28
841.04	38
841.091	36
841.142	32
841.192	30
841.243	38
841.294	36
841.344	36
841.395	32
841.446	42
841.496	32
841.547	40
841.598	28
841.648	34
841.699	40
841.75	28
841.8	36
841.851	34
841.902	36
841.952	30
842.003	40
842.054	40
842.104	34
842.155	26
842.206	42
842.256	36
842.307	40
842.358	32
842.408	28
842.459	32
842.51	38
842.56	32
842.611	24
842.662	40
842.712	38
842.763	32
842.814	34
842.864	42
842.915	40
842.966	36
843.016	38
843.067	30
843.118	36
843.168	34
843.219	36
843.269	40
843.32	38
843.371	38
843.421	34
843.472	32
843.523	38
843.573	34
843.624	30
843.675	38
843.725	42
843.776	40
843.827	34
843.877	36
843.928	40
843.979	24
844.029	30
844.08	36
844.13	36
844.181	40
844.232	36
844.282	28
844.333	42
844.384	32
844.434	30
844.485	26
844.536	36
844.586	44
844.637	36
844.687	28
844.738	36
844.789	36
844.839	32
844.89	26
844.941	40
844.991	40
845.042	30
845.092	34
845.143	42
845.194	40
845.244	34
845.295	36
845.346	36
845.396	40
845.447	28
845.497	32
845.548	40
845.599	34
845.649	32
845.7	24
845.75	36
845.801	32
845.852	32
845.902	38
845.953	36
846.004	38
846.054	32
846.105	28
846.155	32
846.206	32
846.257	26
846.307	32
846.358	30
846.409	40
846.459	26
846.51	26
846.56	30
846.611	36
846.661	28
846.712	26
846.763	34
846.813	40
846.864	28
846.915	30
846.965	38
847.016	40
847.066	30
847.117	36
847.168	38
847.218	40
847.269	40
847.319	34
847.37	36
847.421	40
847.471	36
847.522	26
847.572	32
847.623	32
847.674	40
847.724	34
847.775	42
847.825	36
847.876	32
847.926	26
847.977	34
848.028	38
848.078	38
848.129	34
848.179	26
848.23	38
848.281	30
848.331	34
848.382	24
848.432	38
848.483	36
848.534	38
848.584	34
848.635	36
848.685	36
848.736	32
848.786	34
848.837	36
848.888	32
848.938	34
848.989	28
849.039	40
849.09	42
849.14	28
849.191	30
849.242	34
849.292	36
849.343	24
849.393	32
849.444	38
849.494	38
849.545	30
849.596	30
849.646	38
849.697	34
849.747	28
849.798	28
849.848	36
849.899	40
849.95	36
850	30
850.051	36
850.101	32
850.152	26
850.202	30
850.253	26
850.303	32
850.354	26
850.405	30
850.455	32
850.506	36
850.556	28
850.607	34
850.657	28
850.708	34
850.758	28
850.809	32
850.86	26
850.91	34
850.961	30
851.011	34
851.062	28
851.112	32
851.163	24
851.213	30
851.264	34
851.314	38
851.365	32
851.416	34
851.466	32
851.517	34
851.567	28
851.618	40
851.668	20
851.719	34
851.769	20
851.82	34
851.87	30
851.921	38
851.971	34
852.022	34
852.073	34
852.123	32
852.174	30
852.224	32
852.275	34
852.325	33.9903
852.376	32.0308
852.426	26.251
852.477	32.208
852.527	33.042
852.578	31.6712
852.628	28.2591
852.679	23.345
852.729	30.0123
852.78	29.2555
852.831	31.5641
852.881	31.7628
852.932	37.241
852.982	33.73
853.033	26.5939
853.083	26.62
853.134	39.3989
853.184	29.6273
853.235	30.3176
853.285	30.9186
853.336	33.0262
853.386	34.0764
853.437	27.2236
853.487	33.53
853.538	36.0912
853.588	28.0563
853.639	28.4682
853.689	31.45
853.74	33.3574
853.79	29.9549
853.841	27.1503
853.891	32.1832
853.942	32.5523
853.992	30.9761
854.043	29.888
854.093	34.9421
854.144	38.729
854.194	30.1708
854.245	28.8274
854.295	25.95
854.346	33.7287
854.396	27.5068
854.447	26.6733
854.497	28.2377
854.548	30.6094
854.598	31.6554
854.649	27.07
854.699	30.6753
854.75	35.7045
854.8	33.7454
854.851	30.2561
854.901	32.91
854.952	32.4922
855.002	32.7426
855.053	28.73
855.103	30.1694
855.154	34.544
855.204	28.2432
855.255	28.9495
855.305	28.3466
855.356	30.87
855.406	34.4494
855.457	28.0258
855.507	31.7188
855.558	34.0174
855.608	29.373
855.659	28.482
855.709	33.7877
855.76	34.11
855.81	30.3611
855.861	26.5839
855.911	28.1702
855.962	33.4469
856.012	35.59
856.063	24.3305
856.113	28.9945
856.164	30.4492
856.214	28.1743
856.265	26.8029
856.315	31.4661
856.366	34.5311
856.416	36.74
856.467	30.3292
856.517	28.8429
856.568	28.4517
856.618	29.219
856.668	28.8026
856.719	28.9276
856.769	31.3973
856.82	32.8606
856.87	26.9753
856.921	26.641
856.971	32.3272
857.022	30.9586
857.072	25.4395
857.123	26.8058
857.173	32.7809
857.224	34.8199
857.274	36.8587
857.325	36.9839
857.352	36
857.403	32
857.453	28
857.504	20
857.555	28
857.606	32
857.656	40
857.707	24
857.758	32
857.809	34
857.859	26
857.91	26
857.961	26
858.012	32
858.063	30
858.113	34
858.164	28
858.215	34
858.266	32
858.316	28
858.367	28
858.418	30
858.469	32
858.519	22
858.57	26
858.621	34
858.672	40
858.722	26
858.773	30
858.824	30
858.875	32
858.925	26
858.976	28
859.027	32
859.078	34
859.128	28
859.179	28
859.23	30
859.281	32
859.331	22
859.382	28
859.433	30
859.483	36
859.534	26
859.585	28
859.636	32
859.686	34
859.737	20
859.788	28
859.839	34
859.889	34
859.94	24
859.991	28
860.042	42
860.092	34
860.143	28
860.194	22
860.245	34
860.295	36
860.346	32
860.397	28
860.447	36
860.498	32
860.549	30
860.6	26
860.65	34
860.701	36
860.752	30
860.802	28
860.853	36
860.904	28
860.955	30
861.005	24
861.056	30
861.107	34
861.158	30
861.208	20
861.259	30
861.31	34
861.36	34
861.411	20
861.462	30
861.513	30
861.563	30
861.614	24
861.665	24
861.715	34
861.766	30
861.817	24
861.868	28
861.918	28
861.969	30
862.02	24
862.07	34
862.121	30
862.172	34
862.223	30
862.273	34
862.324	32
862.375	34
862.425	26
862.476	32
862.527	28
862.577	36
862.628	32
862.679	34
862.73	42
862.78	32
862.831	28
862.882	28
862.932	26
862.983	30
863.034	26
863.084	20
863.135	28
863.186	34
863.237	30
863.287	30
863.338	34
863.389	34
863.439	22
863.49	22
863.541	28
863.591	30
863.642	28
863.693	28
863.744	32
863.794	28
863.845	34
863.896	32
863.946	26
863.997	32
864.048	34
864.098	24
864.149	30
864.2	28
864.25	30
864.301	26
864.352	30
864.402	28
864.453	26
864.504	28
864.555	36
864.605	32
864.656	30
864.707	30
864.757	30
864.808	36
864.859	34
864.909	22
864.96	34
865.011	36
865.061	30
865.112	26
865.163	32
865.213	28
865.264	36
865.315	28
865.365	36
865.416	28
865.467	24
865.517	24
865.568	38
865.619	32
865.669	28
865.72	20
865.771	28
865.821	30
865.872	30
865.923	28
865.973	34
866.024	40
866.075	30
866.125	20
866.176	24
866.227	30
866.277	32
866.328	32
866.379	30
866.429	34
866.48	36
866.531	34
866.581	28
866.632	32
866.683	32
866.733	24
866.784	24
866.835	36
866.885	36
866.936	32
866.987	30
867.037	40
867.088	28
867.138	30
867.189	22
867.24	32
867.29	30
867.341	30
867.392	20
867.442	34
867.493	30
867.544	28
867.594	30
867.645	36
867.696	38
867.746	28
867.797	26
867.848	32
867.898	36
867.949	26
867.999	26
868.05	36
868.101	34
868.151	40
868.202	34
868.253	32
868.303	30
868.354	28
868.405	28
868.455	34
868.506	32
868.556	30
868.607	20
868.658	30
868.708	30
868.759	32
868.81	30
868.86	32
868.911	30
868.961	36
869.012	28
869.063	32
869.113	32
869.164	34
869.215	26
869.265	24
869.316	32
869.367	34
869.417	30
869.468	36
869.518	32
869.569	34
869.62	28
869.67	30
869.721	26
869.771	38
869.822	34
869.873	28
869.923	36
869.974	30
870.025	24
870.075	26
870.126	26
870.176	30
870.227	22
870.278	32
870.328	30
870.379	32
870.43	24
870.48	24
870.531	26
870.581	36
870.632	22
870.683	34
870.733	34
870.784	28
870.834	34
870.885	30
870.936	34
870.986	30
871.037	30
871.087	32
871.138	30
871.189	34
871.239	30
871.29	24
871.34	34
871.391	26
871.442	26
871.492	24
871.543	28
871.593	32
871.644	32
871.695	30
871.745	32
871.796	32
871.846	36
871.897	24
871.948	28
871.998	34
872.049	32
872.099	26
872.15	32
872.201	28
872.251	30
872.302	22
872.352	30
872.403	32
872.453	34
872.504	20
872.555	30
872.605	34
872.656	30
872.706	32
872.757	28
872.808	26
872.858	30
872.909	26
872.959	28
873.01	32
873.06	32
873.111	20
873.162	26
873.212	32
873.263	26
873.313	24
873.364	34
873.415	32
873.465	32
873.516	28
873.566	26
873.617	32
873.667	32
873.718	26
873.769	28
873.819	34
873.87	34
873.92	26
873.971	30
874.021	32
874.072	32
874.123	30
874.173	30
874.224	24
874.274	38
874.325	26
874.375	30
874.426	32
874.477	28
874.527	24
874.578	30
874.628	34
874.679	28
874.729	32
874.78	24
874.83	30
874.881	26
874.932	26
874.982	30
875.033	30
875.083	36
875.134	34
875.184	26
875.235	26
875.285	34
875.336	22
875.387	26
875.437	40
875.488	24
875.538	34
875.589	30
875.639	32
875.69	26
875.74	26
875.791	30
875.841	34
875.892	26
875.943	32
875.993	24
876.044	40
876.094	32
876.145	28
876.195	22
876.246	32
876.296	32
876.347	30
876.397	30
876.448	26
876.499	32
876.549	34
876.6	22
876.65	30
876.701	30
876.751	22
876.802	24
876.852	28
876.903	32
876.953	24
877.004	22
877.054	36
877.105	32
877.155	36
877.206	22
877.257	34
877.307	28
877.358	30
877.408	22
877.459	32
877.509	28
877.56	32
877.61	26
877.661	32
877.711	34
877.762	32
877.812	26
877.863	26
877.913	22
877.964	36
878.014	28
878.065	32
878.115	30
878.166	34
878.216	24
878.267	26
878.318	28
878.368	34
878.419	26
878.469	34
878.52	26
878.57	26
878.621	26
878.671	28
878.722	22
878.772	32
878.823	30
878.873	32
878.924	34
878.974	32
879.025	30
879.075	22
879.126	24
879.176	34
879.227	22
879.277	30
879.328	32
879.378	34
879.429	30
879.479	28
879.53	38
879.58	32
879.631	30
879.681	22
879.732	30
879.782	36
879.833	30
879.883	22
879.934	24
879.984	30
880.035	28
880.085	20
880.136	34
880.186	34
880.237	38
880.287	28
880.338	32
880.388	30
880.439	32
880.489	22
880.54	28
880.59	30
880.641	30
880.691	28
880.742	28
880.792	30
880.842	22
880.893	24
880.943	32
880.994	26
881.044	30
881.095	30
881.145	26
881.196	36
881.246	26
881.297	24
881.347	28
881.398	32
881.448	32
881.499	24
881.549	36
881.6	38
881.65	32
881.701	24
881.751	32
881.802	28
881.852	30
881.902	28
881.953	30
882.003	34
882.054	26
882.104	20
882.155	30
882.205	30
882.256	30
882.306	28
882.357	36
882.407	42
882.458	26
882.508	32
882.559	18
882.609	32
882.659	28
882.71	28
882.76	32
882.811	34
882.861	32
882.912	26
882.962	22
883.013	24
883.063	30
883.114	32
883.164	32
883.214	30
883.265	38
883.315	26
883.366	26
883.416	40
883.467	30
883.517	24
883.568	20
883.618	28
883.669	32
883.719	34
883.769	26
883.82	38
883.87	32
883.921	28
883.971	22
884.022	36
884.072	30
884.123	32
884.173	20
884.223	32
884.274	32
884.324	28
884.375	22
884.425	26
884.476	28
884.526	32
884.577	24
884.627	36
884.677	32
884.728	32
884.778	22
884.829	36
884.879	28
884.93	30
884.98	22
885.03	28
885.081	34
885.131	24
885.182	24
885.232	28
885.283	38
885.333	28
885.383	32
885.434	32
885.484	42
885.535	34
885.585	30
885.635	22
885.686	30
885.736	38
885.787	28
885.837	34
885.888	32
885.938	32
885.988	18
886.039	22
886.089	32
886.14	36
886.19	24
886.241	32
886.291	34
886.341	30
886.392	22
886.442	28
886.493	28
886.543	32
886.593	26
886.644	34
886.694	34
886.745	28
886.795	32
886.845	18
886.896	30
886.946	22
886.997	26
887.047	22
887.097	24
887.148	36
887.198	22
887.249	26
887.299	28
887.349	30
887.4	24
887.45	20
887.501	26
887.551	30
887.602	34
887.652	28
887.702	26
887.753	24
887.803	24
887.853	26
887.904	28
887.954	28
888.005	28
888.055	38
888.105	28
888.156	28
888.206	30
888.257	24
888.307	32
888.357	26
888.408	22
888.458	26
888.509	28
888.559	32
888.609	32
888.66	24
888.71	34
888.76	32
888.811	32
888.861	24
888.912	30
888.962	26
889.012	30
889.063	20
889.113	30
889.163	32
889.214	30
889.264	20
889.315	24
889.365	22
889.415	32
889.466	20
889.516	26
889.566	36
889.617	28
889.667	28
889.718	26
889.768	32
889.818	30
889.869	28
889.919	36
889.969	30
890.02	30
890.07	22
890.12	34
890.171	28
890.221	18
890.272	26
890.322	32
890.372	28
890.423	34
890.473	22
890.523	20
890.574	28
890.624	32
890.674	26
890.725	26
890.775	34
890.826	28
890.876	24
890.926	26
890.977	36
891.027	30
891.077	22
891.128	30
891.178	34
891.228	26
891.279	22
891.329	22
891.379	24
891.43	32
891.48	22
891.53	22
891.581	28
891.631	30
891.681	28
891.732	22
891.782	32
891.832	30
891.883	30
891.933	20
891.983	28
892.034	28
892.084	28
892.134	24
892.185	26
892.235	32
892.286	32
892.336	26
892.386	34
892.437	28
892.487	26
892.537	26
892.587	28
892.638	26
892.688	30
892.738	26
892.789	28
892.839	30
892.889	30
892.94	24
892.99	24
893.04	24
893.091	28
893.141	24
893.191	24
893.242	24
893.292	34
893.342	22
893.393	24
893.443	28
893.493	30
893.544	20
893.594	30
893.644	30
893.695	28
893.745	30
893.795	16
893.846	28
893.896	32
893.946	18
893.996	24
894.047	28
894.097	30
894.147	22
894.198	30
894.248	22
894.298	26
894.349	26
894.399	28
894.449	30
894.5	34
894.55	20
894.6	26
894.65	26
894.701	20
894.751	20
894.801	22
894.852	30
894.902	32
894.952	28
895.003	22
895.053	32
895.103	24
895.153	22
895.204	28
895.254	32
895.304	32
895.355	30
895.405	24
895.455	32
895.505	30
895.556	24
895.606	20
895.656	30
895.707	24
895.757	26
895.807	22
895.858	32
895.908	26
895.958	30
896.008	26
896.059	20
896.109	30
896.159	30
896.21	22
896.26	30
896.31	30
896.36	24
896.411	18
896.461	28
896.511	26
896.561	26
896.612	14
896.662	32
896.712	30
896.763	28
896.813	18
896.863	28
896.913	24
896.964	26
897.014	18
897.064	24
897.115	26
897.165	32
897.215	24
897.265	22
897.316	26
897.366	28
897.416	16
897.466	16
897.517	26
897.567	32
897.617	22
897.667	24
897.718	32
897.768	24
897.818	22
897.868	26
897.919	22
897.969	24
898.019	22
898.069	24
898.12	20
898.17	32
898.22	10
898.27	22
898.321	24
898.371	24
898.421	32
898.471	20
898.522	28
898.572	28
898.622	26
898.672	16
898.723	26
898.773	28
898.823	28
898.873	24
898.924	28
898.974	26
899.024	22
899.074	30
899.125	32
899.175	30
899.225	22
899.275	18
899.326	30
899.376	22
899.426	20
899.476	26
899.527	28
899.577	30
899.627	30
899.677	22
899.728	24
899.778	18
899.828	28
899.878	18
899.928	26
899.979	24
