#Acq. time (s)=	3
#Accumulations=	2
#Range (nm)=	520...900
#Windows=	8
#Auto scanning=	Off
#Autofocus=	Off
#AutoExposure=	Off
#Spike filter=	Multiple accum.
#Delay time (s)=	0
#Binning=	1
#Readout mode=	Signal
#DeNoise=	Off
#ICS correction=	Off
#Dark correction=	Off
#Inst. Process=	Off
#Detector temperature (°C)=	-59.98
#Instrument=	LabRAM HR Evol
#Detector=	Syncerity OE
#Objective=	x50_VIS
#Grating=	600 (500nm)
#ND Filter=	10%
#Laser=	514nm_Edge
#Hole=	199.981
#Range=	Auto
#StageXY=	Marzhauser
#StageZ=	Marzhauser
#X (µm)=	0
#Y (µm)=	0
#Z (µm)=	0
#Full time(mm:ss)=	1:32
#Project=	
#Sample=	
#Site=	
#Title=	M3_270224
#Remark=	
#Date=	06.03.2024 10:16
#Acquired=	06.03.2024 10:16:15
520.044	32
520.097	24
520.149	30
520.201	24
520.254	30
520.306	22
520.359	30
520.411	26
520.464	28
520.516	24
520.569	28
520.621	24
520.674	30
520.726	20
520.778	24
520.831	26
520.883	30
520.936	22
520.988	30
521.041	30
521.093	30
521.146	24
521.198	30
521.25	34
521.303	34
521.355	26
521.408	32
521.46	32
521.513	28
521.565	18
521.617	28
521.67	28
521.722	24
521.775	20
521.827	28
521.88	28
521.932	28
521.984	28
522.037	24
522.089	30
522.142	30
522.194	20
522.247	20
522.299	26
522.352	30
522.404	22
522.456	28
522.509	30
522.561	30
522.614	28
522.666	24
522.719	32
522.771	36
522.823	30
522.876	16
522.928	24
522.981	26
523.033	26
523.086	30
523.138	28
523.19	38
523.243	24
523.295	22
523.348	34
523.4	32
523.453	20
523.505	22
523.557	32
523.61	24
523.662	28
523.715	26
523.767	28
523.82	30
523.872	30
523.924	22
523.977	30
524.029	30
524.082	28
524.134	24
524.186	34
524.239	28
524.291	24
524.344	22
524.396	32
524.449	26
524.501	34
524.553	26
524.606	34
524.658	30
524.711	28
524.763	26
524.815	30
524.868	28
524.92	30
524.973	26
525.025	26
525.078	24
525.13	22
525.182	26
525.235	40
525.287	34
525.34	28
525.392	20
525.444	34
525.497	28
525.549	36
525.602	18
525.654	26
525.706	30
525.759	32
525.811	28
525.864	18
525.916	36
525.969	30
526.021	26
526.073	34
526.126	36
526.178	36
526.231	30
526.283	32
526.335	36
526.388	32
526.44	28
526.493	24
526.545	36
526.597	36
526.65	30
526.702	30
526.755	32
526.807	30
526.859	28
526.912	28
526.964	28
527.017	26
527.069	22
527.121	20
527.174	30
527.226	36
527.279	26
527.331	26
527.383	24
527.436	28
527.488	32
527.54	28
527.593	30
527.645	34
527.698	24
527.75	22
527.802	30
527.855	32
527.907	32
527.96	24
528.012	34
528.064	28
528.117	28
528.169	24
528.222	24
528.274	28
528.326	26
528.379	26
528.431	32
528.484	28
528.536	36
528.588	28
528.641	32
528.693	32
528.745	34
528.798	30
528.85	28
528.903	28
528.955	28
529.007	22
529.06	30
529.112	28
529.164	30
529.217	24
529.269	32
529.322	28
529.374	34
529.426	30
529.479	36
529.531	30
529.584	30
529.636	22
529.688	28
529.741	34
529.793	30
529.845	24
529.898	30
529.95	36
530.003	30
530.055	24
530.107	24
530.16	32
530.212	28
530.264	26
530.317	28
530.369	34
530.422	32
530.474	20
530.526	28
530.579	34
530.631	30
530.683	22
530.736	26
530.788	34
530.841	28
530.893	28
530.945	22
530.998	28
531.05	32
531.102	30
531.155	26
531.207	36
531.259	40
531.312	36
531.364	18
531.417	30
531.469	26
531.521	30
531.574	28
531.626	36
531.678	28
531.731	30
531.783	20
531.835	36
531.888	32
531.94	26
531.992	30
532.045	34
532.097	38
532.15	30
532.202	24
532.254	34
532.307	24
532.359	30
532.411	20
532.464	26
532.516	32
532.568	34
532.621	30
532.673	38
532.726	24
532.778	32
532.83	22
532.883	24
532.935	30
532.987	36
533.04	30
533.092	36
533.144	36
533.197	34
533.249	26
533.301	30
533.354	34
533.406	36
533.458	32
533.511	36
533.563	38
533.615	32
533.668	26
533.72	36
533.773	22
533.825	30
533.877	32
533.93	26
533.982	30
534.034	30
534.087	32
534.139	26
534.191	28
534.244	36
534.296	26
534.348	40
534.401	36
534.453	38
534.505	34
534.558	32
534.61	34
534.662	30
534.715	30
534.767	48
534.819	40
534.872	40
534.924	38
534.976	36
535.029	40
535.081	28
535.133	32
535.186	42
535.238	36
535.29	44
535.343	26
535.395	34
535.447	46
535.5	28
535.552	34
535.604	32
535.657	34
535.709	40
535.761	32
535.814	30
535.866	34
535.918	34
535.971	30
536.023	32
536.075	40
536.128	42
536.18	32
536.232	30
536.285	40
536.337	40
536.389	34
536.442	34
536.494	36
536.546	38
536.599	36
536.651	36
536.703	42
536.755	32
536.808	28
536.86	24
536.912	40
536.965	34
537.017	32
537.069	32
537.122	36
537.174	32
537.226	34
537.279	22
537.331	32
537.383	30
537.436	38
537.488	30
537.54	30
537.593	36
537.645	38
537.697	30
537.75	34
537.802	40
537.854	32
537.906	34
537.959	32
538.011	36
538.063	28
538.116	36
538.168	36
538.22	36
538.273	38
538.325	28
538.377	40
538.43	30
538.482	30
538.534	30
538.586	26
538.639	34
538.691	46
538.743	20
538.796	34
538.848	36
538.9	30
538.953	28
539.005	28
539.057	42
539.109	32
539.162	30
539.214	34
539.266	26
539.319	36
539.371	36
539.423	32
539.476	38
539.528	42
539.58	38
539.633	30
539.685	36
539.737	34
539.789	34
539.842	32
539.894	44
539.946	36
539.999	32
540.051	30
540.103	34
540.155	32
540.208	28
540.26	26
540.312	42
540.365	36
540.417	42
540.469	30
540.521	40
540.574	48
540.626	30
540.678	30
540.731	42
540.783	40
540.835	28
540.888	28
540.94	32
540.992	30
541.044	36
541.097	34
541.149	38
541.201	36
541.254	38
541.306	28
541.358	34
541.41	38
541.463	42
541.515	32
541.567	44
541.62	40
541.672	36
541.724	22
541.776	32
541.829	34
541.881	44
541.933	32
541.985	38
542.038	42
542.09	48
542.142	36
542.195	30
542.247	42
542.299	46
542.351	38
542.404	34
542.456	32
542.508	34
542.56	30
542.613	34
542.665	32
542.717	36
542.77	34
542.822	34
542.874	34
542.926	34
542.979	34
543.031	30
543.083	38
543.135	36
543.188	36
543.24	30
543.292	44
543.344	44
543.397	40
543.449	34
543.501	36
543.554	38
543.606	42
543.658	34
543.71	46
543.763	42
543.815	36
543.867	34
543.919	38
543.972	38
544.024	36
544.076	32
544.128	42
544.181	46
544.233	44
544.285	32
544.337	44
544.39	38
544.442	42
544.494	36
544.547	46
544.599	38
544.651	42
544.703	36
544.755	40
544.808	38
544.86	46
544.912	30
544.965	38
545.017	38
545.069	36
545.121	38
545.174	38
545.226	42
545.278	42
545.33	34
545.383	38
545.435	40
545.487	42
545.539	34
545.591	36
545.644	44
545.696	36
545.748	42
545.8	48
545.853	42
545.905	42
545.957	30
546.009	46
546.062	40
546.114	40
546.166	36
546.218	36
546.271	44
546.323	38
546.375	38
546.427	44
546.48	40
546.532	50
546.584	42
546.636	44
546.689	46
546.741	48
546.793	38
546.845	40
546.898	46
546.95	50
547.002	38
547.054	38
547.106	44
547.159	34
547.211	44
547.263	38
547.315	34
547.368	56
547.42	38
547.472	34
547.524	44
547.577	50
547.629	34
547.681	34
547.733	44
547.785	50
547.838	44
547.89	40
547.942	40
547.994	40
548.047	38
548.099	38
548.151	46
548.203	44
548.255	52
548.308	46
548.36	52
548.412	40
548.464	48
548.517	48
548.569	46
548.621	44
548.673	44
548.725	46
548.778	46
548.83	48
548.882	48
548.934	38
548.987	52
549.039	50
549.091	54
549.143	42
549.195	54
549.248	46
549.3	50
549.352	38
549.404	50
549.456	52
549.509	44
549.561	46
549.613	36
549.665	50
549.718	50
549.77	40
549.822	48
549.874	52
549.926	48
549.979	50
550.031	44
550.083	50
550.135	54
550.187	42
550.24	54
550.292	54
550.344	50
550.396	44
550.448	48
550.501	56
550.553	52
550.605	48
550.657	58
550.709	48
550.762	52
550.814	46
550.866	62
550.918	58
550.97	56
551.023	60
551.075	42
551.127	60
551.179	46
551.231	52
551.284	68
551.336	70
551.388	64
551.44	62
551.492	72
551.545	78
551.597	74
551.649	78
551.701	76
551.753	84
551.806	86
551.858	100
551.91	90
551.962	110
552.014	106
552.067	134
552.119	118
552.171	144
552.223	186
552.275	210
552.327	276
552.38	442
552.432	892
552.484	1876
552.536	3404
552.588	6000
552.641	10818
552.693	15424
552.745	10274
552.797	4816
552.849	1808
552.901	680
552.954	396
553.006	286
553.058	224
553.11	174
553.162	158
553.215	128
553.267	116
553.319	116
553.371	98
553.423	98
553.475	88
553.528	80
553.58	72
553.632	78
553.684	78
553.736	70
553.788	70
553.841	70
553.893	66
553.945	72
553.997	66
554.049	66
554.102	62
554.154	60
554.206	52
554.258	58
554.31	64
554.362	66
554.414	64
554.467	58
554.519	68
554.571	58
554.623	56
554.675	56
554.727	66
554.78	50
554.832	50
554.884	48
554.936	62
554.988	56
555.04	48
555.093	50
555.145	58
555.197	58
555.249	44
555.301	58
555.353	58
555.406	58
555.458	50
555.51	54
555.562	66
555.614	56
555.666	56
555.719	52
555.771	52
555.823	60
555.875	58
555.927	44
555.979	60
556.031	54
556.084	52
556.136	50
556.188	66
556.24	62
556.292	52
556.344	48
556.396	60
556.449	64
556.501	52
556.553	48
556.605	62
556.657	52
556.709	56
556.762	48
556.814	60
556.866	54
556.918	54
556.97	42
557.022	60
557.074	54
557.127	50
557.179	50
557.231	64
557.283	58
557.335	50
557.387	52
557.439	70
557.492	56
557.544	64
557.596	56
557.648	62
557.7	64
557.752	60
557.804	56
557.856	60
557.909	56
557.961	60
558.013	56
558.065	62
558.117	62
558.169	62
558.221	54
558.273	68
558.326	72
558.378	72
558.43	52
558.482	60
558.534	64
558.586	68
558.638	66
558.691	58
558.743	62
558.795	64
558.847	52
558.899	50
558.951	64
559.003	68
559.055	60
559.108	58
559.16	60
559.212	64
559.264	58
559.316	58
559.368	64
559.42	62
559.472	56
559.525	58
559.577	62
559.629	64
559.681	64
559.733	50
559.785	72
559.837	64
559.889	62
559.941	62
559.994	62
560.046	60
560.098	62
560.15	62
560.202	70
560.254	78
560.306	62
560.358	60
560.41	70
560.463	64
560.515	52
560.567	56
560.619	70
560.671	70
560.723	74
560.775	68
560.827	74
560.879	66
560.932	68
560.984	58
561.036	68
561.088	72
561.14	66
561.192	56
561.244	74
561.296	64
561.348	64
561.4	70
561.453	70
561.505	78
561.557	68
561.609	60
561.661	62
561.713	62
561.765	66
561.817	72
561.869	66
561.921	78
561.974	74
562.026	68
562.078	68
562.13	62
562.182	74
562.234	62
562.286	72
562.338	84
562.39	74
562.442	52
562.494	70
562.547	74
562.599	80
562.651	72
562.703	66
562.755	62
562.807	78
562.859	78
562.911	74
562.963	82
563.015	80
563.067	70
563.12	78
563.172	70
563.224	82
563.276	68
563.328	78
563.38	70
563.432	82
563.484	68
563.536	68
563.588	80
563.64	80
563.692	70
563.744	68
563.797	80
563.849	88
563.901	86
563.953	78
564.005	78
564.057	76
564.109	70
564.161	66
564.213	74
564.265	70
564.317	78
564.369	72
564.421	84
564.474	86
564.526	82
564.578	80
564.63	78
564.682	72
564.734	84
564.786	78
564.838	82
564.89	76
564.942	82
564.994	76
565.046	82
565.098	92
565.15	78
565.202	76
565.255	92
565.307	88
565.359	80
565.411	60
565.463	78
565.515	80
565.567	84
565.619	80
565.671	84
565.723	92
565.775	94
565.827	80
565.879	92
565.931	84
565.983	88
566.035	84
566.087	84
566.139	90
566.192	86
566.244	76
566.296	78
566.348	88
566.4	84
566.452	76
566.504	82
566.556	86
566.608	86
566.66	86
566.712	76
566.764	86
566.816	98
566.868	94
566.92	88
566.972	88
567.024	78
567.076	94
567.128	78
567.18	92
567.232	90
567.285	86
567.337	96
567.389	96
567.441	90
567.493	90
567.545	74
567.597	92
567.649	94
567.701	92
567.753	82
567.805	96
567.857	102
567.909	96
567.961	90
568.013	98
568.065	88
568.117	84.06
568.169	95.9518
568.221	111.291
568.273	97.5213
568.325	95.9184
568.377	88.2077
568.429	74.8468
568.481	97.4797
568.533	95.2281
568.585	85.6209
568.637	102.109
568.69	91.3127
568.742	103.128
568.794	92.5112
568.846	92.8292
568.898	96.8933
568.95	92.6423
569.002	86.9523
569.054	101.501
569.106	102.291
569.158	98.547
569.21	93.4153
569.262	107.407
569.314	103.024
569.366	100.571
569.418	103.333
569.47	97.2154
569.522	103.062
569.574	100.049
569.626	94.6689
569.678	93.6879
569.73	102.147
569.782	105.471
569.834	100.401
569.886	101.31
569.938	102.022
569.99	105.044
570.042	99.1717
570.094	103.816
570.146	105.406
570.198	104.967
570.25	105.633
570.302	100.761
570.354	106.865
570.406	103.528
570.458	103.36
570.51	101.753
570.562	109.375
570.614	112.06
570.666	108.672
570.718	102.668
570.77	107.604
570.822	109.889
570.874	117.17
570.926	118.418
570.978	118.645
571.03	119.051
571.082	113.283
571.134	103.529
571.186	113.523
571.238	113.485
571.29	116.348
571.342	119.901
571.394	114.191
571.446	115.071
571.498	112.349
571.55	115.34
571.602	117.551
571.654	117.298
571.706	125.741
571.758	125.947
571.81	132.619
571.862	122.682
571.914	124.79
571.966	123.192
572.018	125.421
572.07	129.354
572.122	132.783
572.174	133.602
572.226	138.879
572.278	127.934
572.33	134.199
572.382	139.937
572.434	143.08
572.486	136.797
572.538	138.893
572.59	143.132
572.642	136.348
572.694	133.418
572.746	138.989
572.798	135.615
572.85	143.272
572.902	133.447
572.954	151.322
573.006	154.016
573.058	152.361
573.11	163.662
573.162	148.04
573.214	158.869
573.266	151.553
573.312	162
573.364	156
573.416	174
573.469	180
573.521	178
573.573	170
573.625	168
573.677	164
573.73	186
573.782	180
573.834	192
573.886	188
573.938	206
573.991	186
574.043	204
574.095	186
574.147	208
574.199	206
574.252	214
574.304	206
574.356	228
574.408	214
574.46	230
574.513	230
574.565	222
574.617	234
574.669	248
574.721	242
574.774	240
574.826	250
574.878	258
574.93	256
574.982	248
575.035	252
575.087	268
575.139	270
575.191	274
575.243	266
575.296	278
575.348	278
575.4	270
575.452	286
575.504	282
575.556	276
575.609	292
575.661	264
575.713	294
575.765	274
575.817	272
575.87	280
575.922	262
575.974	278
576.026	282
576.078	280
576.131	290
576.183	270
576.235	272
576.287	280
576.339	264
576.391	264
576.444	268
576.496	258
576.548	242
576.6	272
576.652	256
576.705	250
576.757	244
576.809	244
576.861	246
576.913	222
576.965	226
577.018	240
577.07	228
577.122	238
577.174	228
577.226	228
577.279	222
577.331	234
577.383	214
577.435	214
577.487	212
577.539	206
577.592	204
577.644	206
577.696	206
577.748	200
577.8	204
577.852	210
577.905	184
577.957	202
578.009	206
578.061	222
578.113	198
578.165	204
578.218	200
578.27	188
578.322	180
578.374	194
578.426	174
578.478	184
578.531	190
578.583	190
578.635	188
578.687	178
578.739	178
578.791	182
578.844	176
578.896	202
578.948	180
579	190
579.052	186
579.104	188
579.157	174
579.209	186
579.261	196
579.313	192
579.365	172
579.417	190
579.47	172
579.522	196
579.574	182
579.626	180
579.678	184
579.73	196
579.782	190
579.835	188
579.887	170
579.939	186
579.991	186
580.043	190
580.095	192
580.148	190
580.2	200
580.252	178
580.304	200
580.356	192
580.408	190
580.46	190
580.513	188
580.565	188
580.617	192
580.669	192
580.721	198
580.773	182
580.826	188
580.878	182
580.93	202
580.982	194
581.034	182
581.086	194
581.138	188
581.191	184
581.243	190
581.295	184
581.347	200
581.399	206
581.451	204
581.503	194
581.556	198
581.608	200
581.66	202
581.712	202
581.764	188
581.816	196
581.868	216
581.92	204
581.973	202
582.025	194
582.077	210
582.129	188
582.181	218
582.233	186
582.285	204
582.338	198
582.39	212
582.442	218
582.494	224
582.546	202
582.598	202
582.65	198
582.703	204
582.755	214
582.807	214
582.859	214
582.911	210
582.963	196
583.015	218
583.067	214
583.12	222
583.172	208
583.224	216
583.276	210
583.328	228
583.38	208
583.432	218
583.484	226
583.537	212
583.589	212
583.641	230
583.693	216
583.745	224
583.797	232
583.849	230
583.901	226
583.953	216
584.006	228
584.058	234
584.11	214
584.162	224
584.214	240
584.266	234
584.318	242
584.37	216
584.423	248
584.475	238
584.527	228
584.579	234
584.631	234
584.683	250
584.735	236
584.787	236
584.839	250
584.892	238
584.944	246
584.996	250
585.048	264
585.1	266
585.152	262
585.204	266
585.256	262
585.308	252
585.361	248
585.413	262
585.465	252
585.517	258
585.569	258
585.621	252
585.673	248
585.725	244
585.777	240
585.83	278
585.882	260
585.934	262
585.986	272
586.038	262
586.09	266
586.142	268
586.194	266
586.246	274
586.298	268
586.351	244
586.403	278
586.455	266
586.507	266
586.559	260
586.611	260
586.663	272
586.715	262
586.767	264
586.819	272
586.872	270
586.924	274
586.976	252
587.028	278
587.08	276
587.132	274
587.184	298
587.236	274
587.288	278
587.34	288
587.392	280
587.445	270
587.497	280
587.549	280
587.601	270
587.653	278
587.705	258
587.757	272
587.809	284
587.861	278
587.913	258
587.965	284
588.018	278
588.07	272
588.122	280
588.174	272
588.226	294
588.278	284
588.33	280
588.382	280
588.434	272
588.486	294
588.538	282
588.59	284
588.642	294
588.695	280
588.747	290
588.799	282
588.851	290
588.903	284
588.955	282
589.007	292
589.059	286
589.111	286
589.163	304
589.215	304
589.267	314
589.319	306
589.372	304
589.424	332
589.476	314
589.528	286
589.58	306
589.632	328
589.684	310
589.736	304
589.788	328
589.84	324
589.892	318
589.944	316
589.996	306
590.048	296
590.101	300
590.153	298
590.205	304
590.257	310
590.309	304
590.361	310
590.413	308
590.465	294
590.517	336
590.569	296
590.621	298
590.673	300
590.725	288
590.777	296
590.829	312
590.881	298
590.933	300
590.986	282
591.038	296
591.09	282
591.142	292
591.194	308
591.246	294
591.298	278
591.35	294
591.402	284
591.454	288
591.506	288
591.558	298
591.61	288
591.662	264
591.714	270
591.766	282
591.818	274
591.87	280
591.923	282
591.975	274
592.027	268
592.079	272
592.131	276
592.183	272
592.235	282
592.287	270
592.339	286
592.391	270
592.443	274
592.495	278
592.547	250
592.599	264
592.651	272
592.703	260
592.755	262
592.807	268
592.859	274
592.911	272
592.963	276
593.015	264
593.068	270
593.12	260
593.172	266
593.224	280
593.276	278
593.328	256
593.38	274
593.432	272
593.484	280
593.536	274
593.588	260
593.64	258
593.692	266
593.744	260
593.796	264
593.848	266
593.9	266
593.952	292
594.004	282
594.056	268
594.108	270
594.16	262
594.212	294
594.264	266
594.316	272
594.368	266
594.42	288
594.472	262
594.524	274
594.576	276
594.628	290
594.68	268
594.732	292
594.784	260
594.837	276
594.889	272
594.941	280
594.993	268
595.045	258
595.097	290
595.149	292
595.201	264
595.253	290
595.305	294
595.357	292
595.409	290
595.461	286
595.513	288
595.565	290
595.617	288
595.669	278
595.721	292
595.773	294
595.825	280
595.877	300
595.929	290
595.981	300
596.033	296
596.085	286
596.137	304
596.189	292
596.241	304
596.293	300
596.345	288
596.397	312
596.449	302
596.501	298
596.553	306
596.605	306
596.657	316
596.709	312
596.761	318
596.813	302
596.865	304
596.917	278
596.969	276
597.021	306
597.073	272
597.125	296
597.177	300
597.229	276
597.281	302
597.333	294
597.385	288
597.437	304
597.489	286
597.541	292
597.593	300
597.645	288
597.697	298
597.749	296
597.801	286
597.853	296
597.905	298
597.957	316
598.009	318
598.061	288
598.113	302
598.165	276
598.217	300
598.269	262
598.321	284
598.373	298
598.425	278
598.477	290
598.529	302
598.581	302
598.633	302
598.685	286
598.737	300
598.789	286
598.841	280
598.893	268
598.945	290
598.997	280
599.049	298
599.101	274
599.153	290
599.205	278
599.257	300
599.309	300
599.361	312
599.413	300
599.465	280
599.517	286
599.569	280
599.62	296
599.672	286
599.724	276
599.776	310
599.828	288
599.88	288
599.932	290
599.984	276
600.036	288
600.088	300
600.14	298
600.192	294
600.244	286
600.296	276
600.348	282
600.4	302
600.452	284
600.504	290
600.556	274
600.608	274
600.66	306
600.712	288
600.764	308
600.816	282
600.868	316
600.92	294
600.972	286
601.024	306
601.076	298
601.128	308
601.18	282
601.232	308
601.284	298
601.335	298
601.387	266
601.439	296
601.491	304
601.543	302
601.595	314
601.647	292
601.699	298
601.751	294
601.803	286
601.855	298
601.907	298
601.959	294
602.011	306
602.063	286
602.115	298
602.167	294
602.219	300
602.271	306
602.323	310
602.375	298
602.427	290
602.478	300
602.53	284
602.582	308
602.634	308
602.686	306
602.738	306
602.79	290
602.842	288
602.894	282
602.946	300
602.998	288
603.05	300
603.102	278
603.154	306
603.206	282
603.258	292
603.31	298
603.362	314
603.413	306
603.465	312
603.517	318
603.569	300
603.621	296
603.673	318
603.725	302
603.777	294
603.829	296
603.881	298
603.933	302
603.985	314
604.037	314
604.089	314
604.141	298
604.193	326
604.244	310
604.296	310
604.348	306
604.4	294
604.452	310
604.504	300
604.556	306
604.608	310
604.66	314
604.712	314
604.764	286
604.816	308
604.868	300
604.92	310
604.971	304
605.023	300
605.075	306
605.127	306
605.179	304
605.231	312
605.283	312
605.335	308
605.387	296
605.439	312
605.491	318
605.543	306
605.594	320
605.646	292
605.698	308
605.75	316
605.802	310
605.854	302
605.906	294
605.958	294
606.01	318
606.062	298
606.114	300
606.166	282
606.217	302
606.269	314
606.321	314
606.373	316
606.425	320
606.477	306
606.529	326
606.581	296
606.633	306
606.685	314
606.737	304
606.789	308
606.84	300
606.892	294
606.944	294
606.996	306
607.048	306
607.1	292
607.152	322
607.204	296
607.256	294
607.308	314
607.359	316
607.411	316
607.463	306
607.515	322
607.567	294
607.619	312
607.671	304
607.723	312
607.775	318
607.827	312
607.878	298
607.93	320
607.982	314
608.034	302
608.086	310
608.138	306
608.19	340
608.242	324
608.294	320
608.345	296
608.397	330
608.449	298
608.501	330
608.553	316
608.605	320
608.657	322
608.709	320
608.761	310
608.812	320
608.864	316
608.916	308
608.968	324
609.02	322
609.072	326
609.124	312
609.176	326
609.228	328
609.279	322
609.331	306
609.383	326
609.435	332
609.487	338
609.539	334
609.591	312
609.643	332
609.694	344
609.746	324
609.798	326
609.85	326
609.902	338
609.954	322
610.006	332
610.058	324
610.109	334
610.161	334
610.213	338
610.265	326
610.317	316
610.369	308
610.421	332
610.473	318
610.524	344
610.576	328
610.628	324
610.68	332
610.732	328
610.784	342
610.836	344
610.887	336
610.939	324
610.991	312
611.043	344
611.095	320
611.147	334
611.199	320
611.25	346
611.302	322
611.354	338
611.406	330
611.458	342
611.51	336
611.562	344
611.614	342
611.665	336
611.717	326
611.769	358
611.821	324
611.873	346
611.925	336
611.977	332
612.028	336
612.08	344
612.132	330
612.184	332
612.236	340
612.288	336
612.339	342
612.391	352
612.443	350
612.495	356
612.547	360
612.599	342
612.651	348
612.702	342
612.754	344
612.806	328
612.858	342
612.91	324
612.962	346
613.013	330
613.065	350
613.117	332
613.169	336
613.221	346
613.273	350
613.325	358
613.376	356
613.428	340
613.48	346
613.532	354
613.584	358
613.635	364
613.687	368
613.739	368
613.791	358
613.843	356
613.895	360
613.947	342
613.998	354
614.05	340
614.102	366
614.154	356
614.206	366
614.258	370
614.309	354
614.361	350
614.413	356
614.465	376
614.517	368
614.568	364
614.62	362
614.672	356
614.724	358
614.776	346
614.828	368
614.879	348
614.931	364
614.983	370
615.035	378
615.087	362
615.139	364
615.19	358
615.242	378
615.294	372
615.346	366
615.398	376
615.449	366
615.501	380
615.553	372
615.605	376
615.657	368
615.709	382
615.76	368
615.812	358
615.864	382
615.916	380
615.968	376
616.019	397.827
616.071	366.079
616.123	383.51
616.175	387.176
616.227	383.139
616.278	387.143
616.33	379.463
616.382	368.895
616.434	389.622
616.486	357.463
616.537	365.198
616.589	401.237
616.641	377.158
616.693	380.699
616.745	382.892
616.797	374.7
616.848	381.008
616.9	375.268
616.952	364.902
617.004	361.723
617.056	401.526
617.107	375.52
617.159	394.059
617.211	378.872
617.263	376.526
617.315	370.546
617.366	383.733
617.418	386.423
617.47	382.315
617.522	383.867
617.573	374.298
617.625	363.113
617.677	392.969
617.729	387.229
617.781	404.339
617.832	396.464
617.884	370.756
617.936	390.223
617.988	392.23
618.04	382.652
618.091	394.24
618.143	406.696
618.195	381.656
618.247	397.659
618.299	397.213
618.35	395.691
618.402	394.492
618.454	388.925
618.506	399.133
618.557	384.063
618.609	393.555
618.661	394.011
618.713	387.082
618.765	390.102
618.816	386.113
618.868	403.121
618.92	399.527
618.972	396.98
619.023	400.144
619.075	390.614
619.127	383.381
619.179	401.205
619.231	412.941
619.282	416.334
619.334	397.432
619.386	400.805
619.438	407.408
619.49	404.882
619.541	388.336
619.593	401.685
619.645	407.586
619.697	405.4
619.748	397.6
619.8	407.672
619.852	409.966
619.904	408.783
619.955	400.324
620.007	401.603
620.059	409.481
620.111	404.223
620.162	390.257
620.214	391.951
620.266	413.103
620.318	409.461
620.37	392.459
620.421	398.56
620.473	409.224
620.525	412.97
620.577	391.347
620.628	399.184
620.68	412.471
620.732	405.554
620.784	405.31
620.835	409.098
620.887	400.975
620.939	409.505
620.991	408.158
621.042	407.81
621.094	416.04
621.146	409.563
621.198	405.421
621.249	407.296
621.269	408
621.321	414
621.373	406
621.425	406
621.477	428
621.529	418
621.581	422
621.633	392
621.685	416
621.737	420
621.789	424
621.841	400
621.893	388
621.945	414
621.997	418
622.049	398
622.101	396
622.153	414
622.205	402
622.257	392
622.309	402
622.361	444
622.413	406
622.465	430
622.517	416
622.569	406
622.621	408
622.673	396
622.725	408
622.776	412
622.828	426
622.88	394
622.932	420
622.984	424
623.036	402
623.088	402
623.14	404
623.192	424
623.244	412
623.296	414
623.348	400
623.4	434
623.452	426
623.504	394
623.556	406
623.608	430
623.66	420
623.712	410
623.764	416
623.816	438
623.868	424
623.92	428
623.972	412
624.024	416
624.076	408
624.128	412
624.18	404
624.232	444
624.284	412
624.336	412
624.388	434
624.44	418
624.492	416
624.544	426
624.596	418
624.648	410
624.699	398
624.751	430
624.803	426
624.855	418
624.907	434
624.959	418
625.011	436
625.063	434
625.115	426
625.167	416
625.219	416
625.271	434
625.323	446
625.375	424
625.427	418
625.479	428
625.531	434
625.583	438
625.635	428
625.687	448
625.739	438
625.791	422
625.843	422
625.895	452
625.946	440
625.998	424
626.05	434
626.102	434
626.154	424
626.206	436
626.258	414
626.31	432
626.362	440
626.414	420
626.466	398
626.518	426
626.57	428
626.622	424
626.674	418
626.726	414
626.778	460
626.83	428
626.882	444
626.934	420
626.985	414
627.037	454
627.089	460
627.141	438
627.193	442
627.245	430
627.297	424
627.349	420
627.401	440
627.453	450
627.505	440
627.557	434
627.609	464
627.661	448
627.713	442
627.765	420
627.817	460
627.868	444
627.92	448
627.972	442
628.024	460
628.076	444
628.128	438
628.18	452
628.232	478
628.284	450
628.336	444
628.388	424
628.44	470
628.492	466
628.544	436
628.596	444
628.647	468
628.699	424
628.751	462
628.803	464
628.855	452
628.907	474
628.959	432
629.011	448
629.063	476
629.115	470
629.167	434
629.219	452
629.271	456
629.322	448
629.374	450
629.426	460
629.478	464
629.53	434
629.582	470
629.634	462
629.686	478
629.738	466
629.79	460
629.842	476
629.894	460
629.945	484
629.997	450
630.049	452
630.101	476
630.153	464
630.205	478
630.257	470
630.309	468
630.361	458
630.413	456
630.465	468
630.517	462
630.568	472
630.62	464
630.672	452
630.724	454
630.776	486
630.828	490
630.88	468
630.932	462
630.984	484
631.036	456
631.088	452
631.14	490
631.191	478
631.243	486
631.295	492
631.347	458
631.399	480
631.451	474
631.503	480
631.555	468
631.607	498
631.659	486
631.71	480
631.762	474
631.814	490
631.866	496
631.918	472
631.97	494
632.022	500
632.074	482
632.126	494
632.178	494
632.229	486
632.281	494
632.333	488
632.385	470
632.437	506
632.489	474
632.541	462
632.593	502
632.645	502
632.696	502
632.748	498
632.8	492
632.852	514
632.904	512
632.956	500
633.008	510
633.06	496
633.112	522
633.164	500
633.215	500
633.267	494
633.319	522
633.371	504
633.423	484
633.475	494
633.527	528
633.579	504
633.63	520
633.682	526
633.734	486
633.786	550
633.838	530
633.89	518
633.942	536
633.994	532
634.046	540
634.097	504
634.149	530
634.201	514
634.253	536
634.305	524
634.357	538
634.409	540
634.461	538
634.512	530
634.564	506
634.616	534
634.668	526
634.72	514
634.772	560
634.824	552
634.876	554
634.927	544
634.979	532
635.031	534
635.083	526
635.135	538
635.187	572
635.239	550
635.291	534
635.342	560
635.394	556
635.446	560
635.498	568
635.55	536
635.602	578
635.654	572
635.705	574
635.757	570
635.809	600
635.861	566
635.913	576
635.965	584
636.017	610
636.068	606
636.12	600
636.172	584
636.224	610
636.276	594
636.328	616
636.38	608
636.431	610
636.483	642
636.535	614
636.587	654
636.639	652
636.691	676
636.743	652
636.794	658
636.846	674
636.898	706
636.95	652
637.002	702
637.054	714
637.106	720
637.157	714
637.209	714
637.261	718
637.313	722
637.365	722
637.417	732
637.469	736
637.52	740
637.572	764
637.624	780
637.676	760
637.728	758
637.78	772
637.831	748
637.883	770
637.935	792
637.987	756
638.039	770
638.091	776
638.143	792
638.194	770
638.246	754
638.298	726
638.35	766
638.402	742
638.454	728
638.505	736
638.557	758
638.609	750
638.661	726
638.713	730
638.765	716
638.816	744
638.868	710
638.92	720
638.972	744
639.024	716
639.076	728
639.127	706
639.179	716
639.231	698
639.283	700
639.335	676
639.387	684
639.438	692
639.49	684
639.542	682
639.594	668
639.646	674
639.698	674
639.749	666
639.801	680
639.853	656
639.905	692
639.957	664
640.008	654
640.06	660
640.112	670
640.164	640
640.216	674
640.268	662
640.319	640
640.371	652
640.423	628
640.475	670
640.527	646
640.578	630
640.63	634
640.682	640
640.734	642
640.786	630
640.838	642
640.889	624
640.941	658
640.993	626
641.045	638
641.097	640
641.148	622
641.2	634
641.252	654
641.304	630
641.356	630
641.408	652
641.459	640
641.511	642
641.563	628
641.615	636
641.667	626
641.718	638
641.77	628
641.822	620
641.874	620
641.926	634
641.977	626
642.029	644
642.081	628
642.133	610
642.185	648
642.236	658
642.288	632
642.34	640
642.392	642
642.444	630
642.495	630
642.547	656
642.599	628
642.651	630
642.703	652
642.754	616
642.806	644
642.858	640
642.91	644
642.962	642
643.013	676
643.065	658
643.117	656
643.169	650
643.221	646
643.272	624
643.324	648
643.376	650
643.428	646
643.479	622
643.531	634
643.583	644
643.635	650
643.687	616
643.738	624
643.79	660
643.842	610
643.894	668
643.946	616
643.997	630
644.049	628
644.101	614
644.153	656
644.205	662
644.256	644
644.308	642
644.36	632
644.412	658
644.463	678
644.515	638
644.567	656
644.619	654
644.671	660
644.722	658
644.774	678
644.826	666
644.878	646
644.929	660
644.981	642
645.033	660
645.085	666
645.136	662
645.188	642
645.24	646
645.292	664
645.344	664
645.395	664
645.447	658
645.499	650
645.551	628
645.602	628
645.654	640
645.706	662
645.758	664
645.81	660
645.861	670
645.913	650
645.965	670
646.017	658
646.068	654
646.12	660
646.172	652
646.224	654
646.275	674
646.327	690
646.379	670
646.431	662
646.482	660
646.534	676
646.586	666
646.638	696
646.689	670
646.741	662
646.793	676
646.845	662
646.896	654
646.948	674
647	668
647.052	670
647.104	686
647.155	660
647.207	678
647.259	666
647.31	616
647.362	682
647.414	704
647.466	672
647.518	692
647.569	668
647.621	694
647.673	702
647.724	686
647.776	656
647.828	680
647.88	682
647.931	690
647.983	690
648.035	672
648.087	680
648.138	662
648.19	678
648.242	686
648.294	694
648.345	676
648.397	692
648.449	702
648.501	682
648.552	672
648.604	688
648.656	686
648.708	702
648.759	698
648.811	702
648.863	690
648.915	712
648.966	686
649.018	680
649.07	718
649.121	708
649.173	688
649.225	710
649.277	726
649.328	714
649.38	710
649.432	700
649.484	678
649.535	694
649.587	688
649.639	702
649.69	712
649.742	716
649.794	702
649.846	716
649.897	726
649.949	692
650.001	702
650.053	712
650.104	722
650.156	704
650.208	718
650.259	712
650.311	734
650.363	728
650.415	742
650.466	704
650.518	720
650.57	706
650.621	708
650.673	740
650.725	742
650.777	716
650.828	704
650.88	736
650.932	724
650.984	720
651.035	744
651.087	726
651.139	748
651.19	756
651.242	742
651.294	756
651.345	738
651.397	784
651.449	726
651.501	770
651.552	736
651.604	746
651.656	750
651.707	734
651.759	764
651.811	750
651.863	754
651.914	754
651.966	762
652.018	724
652.069	742
652.121	738
652.173	756
652.224	694
652.276	778
652.328	724
652.38	744
652.431	754
652.483	758
652.535	744
652.586	746
652.638	746
652.69	780
652.741	772
652.793	746
652.845	774
652.897	770
652.948	716
653	752
653.052	758
653.103	778
653.155	744
653.207	768
653.258	780
653.31	776
653.362	736
653.413	770
653.465	768
653.517	782
653.568	770
653.62	762
653.672	782
653.724	786
653.775	748
653.827	780
653.879	802
653.93	776
653.982	778
654.034	808
654.085	766
654.137	766
654.189	780
654.24	768
654.292	792
654.344	788
654.395	790
654.447	790
654.499	810
654.55	788
654.602	822
654.654	780
654.705	828
654.757	832
654.809	812
654.86	814
654.912	822
654.964	840
655.016	820
655.067	806
655.119	826
655.17	816
655.222	800
655.274	848
655.326	836
655.377	804
655.429	848
655.481	816
655.532	886
655.584	838
655.635	836
655.687	834
655.739	874
655.79	860
655.842	818
655.894	826
655.945	850
655.997	822
656.049	846
656.1	812
656.152	836
656.204	858
656.255	824
656.307	846
656.359	840
656.41	880
656.462	848
656.514	818
656.565	882
656.617	874
656.669	864
656.72	848
656.772	858
656.824	842
656.875	880
656.927	884
656.979	892
657.03	892
657.082	866
657.134	856
657.185	870
657.237	890
657.288	864
657.34	858
657.392	892
657.443	922
657.495	902
657.547	870
657.598	866
657.65	912
657.702	850
657.753	864
657.805	906
657.857	882
657.908	890
657.96	890
658.011	916
658.063	926
658.115	910
658.166	896
658.218	900
658.27	922
658.321	926
658.373	918
658.425	884
658.476	926
658.528	936
658.579	900
658.631	922
658.683	916
658.734	906
658.786	906
658.838	900
658.889	932
658.941	920
658.992	940
659.044	908
659.096	928
659.147	916
659.199	918
659.251	886
659.302	908
659.354	904
659.406	938
659.457	896
659.509	928
659.56	900
659.612	942
659.664	904
659.715	928
659.767	900
659.818	918
659.87	936
659.922	940
659.973	930
660.025	930
660.077	890
660.128	898
660.18	942
660.231	906
660.283	910
660.335	944
660.386	910
660.438	928
660.49	956
660.541	952
660.593	914
660.644	896
660.696	924
660.748	916
660.799	938
660.851	922
660.902	908
660.954	896
661.006	910
661.057	902
661.109	906
661.16	942
661.212	940
661.264	932
661.315	922
661.367	902
661.418	922
661.47	914
661.522	916
661.573	900
661.625	920
661.676	886
661.728	946
661.78	926
661.831	960
661.883	902
661.934	920
661.986	918
662.038	934
662.089	902
662.141	884
662.192	888
662.244	910
662.296	920
662.347	914
662.399	916
662.45	906
662.502	948
662.554	904
662.605	874
662.657	926
662.708	932
662.76	940
662.811	920
662.863	916
662.915	940
662.966	938
663.018	920
663.069	936
663.121	920
663.173	944
663.224	890
663.276	910
663.327	936
663.379	926
663.43	918
663.482	906
663.534	926
663.585	920
663.637	944
663.688	944
663.74	906.168
663.792	935.998
663.843	916.853
663.895	952.957
663.946	931.896
663.998	923.333
664.049	916.819
664.101	907.935
664.153	907.292
664.204	907.741
664.256	916.018
664.307	926.37
664.359	919.525
664.41	903.363
664.462	942.615
664.513	907.645
664.565	931.015
664.617	917.337
664.668	933.826
664.72	943.201
664.771	928.94
664.823	919.341
664.874	903.713
664.926	943.37
664.978	913.328
665.029	932.021
665.081	918.756
665.132	921.954
665.184	926.049
665.235	926.232
665.287	941.993
665.339	917.207
665.39	922.33
665.442	922.742
665.493	906.083
665.545	924.996
665.596	932.004
665.648	935.723
665.699	919.844
665.751	933.441
665.802	938.048
665.854	933.357
665.906	925.153
665.957	927.743
666.009	930.77
666.06	925.457
666.112	923.003
666.163	897.943
666.215	912.683
666.266	923.668
666.318	924
666.37	927.077
666.421	907.632
666.473	918.46
666.524	911.849
666.576	909.842
666.627	928.574
666.679	901.401
666.73	920.102
666.782	917.876
666.833	907.033
666.885	891.994
666.937	901.095
666.988	929.996
667.04	935.864
667.091	925.343
667.143	919.794
667.194	914.448
667.246	929.387
667.297	927.974
667.349	919.579
667.4	917.204
667.452	915.13
667.503	925.314
667.555	911.443
667.607	917.723
667.658	914.95
667.71	908.087
667.761	912.253
667.813	903.193
667.864	919.183
667.916	922.9
667.967	913.979
668.019	936.823
668.07	930.671
668.122	919.752
668.173	925.207
668.225	926.517
668.276	916.059
668.328	930.247
668.379	942.027
668.431	920.858
668.482	917.45
668.534	930.048
668.586	924.527
668.637	939.216
668.689	934.928
668.74	919.327
668.792	911.6
668.843	921.531
668.895	934.056
668.935	914
668.987	918
669.038	926
669.09	920
669.142	916
669.194	930
669.245	924
669.297	912
669.349	936
669.401	926
669.453	922
669.504	942
669.556	922
669.608	932
669.66	934
669.711	938
669.763	932
669.815	904
669.867	920
669.918	910
669.97	938
670.022	930
670.074	912
670.125	910
670.177	898
670.229	928
670.281	940
670.332	906
670.384	926
670.436	930
670.488	918
670.539	920
670.591	894
670.643	926
670.695	908
670.747	900
670.798	938
670.85	936
670.902	928
670.953	926
671.005	918
671.057	900
671.109	888
671.161	892
671.212	898
671.264	926
671.316	928
671.367	928
671.419	926
671.471	914
671.523	922
671.575	936
671.626	908
671.678	932
671.73	898
671.781	934
671.833	918
671.885	916
671.937	900
671.988	932
672.04	936
672.092	932
672.144	898
672.195	928
672.247	918
672.299	904
672.351	934
672.402	938
672.454	946
672.506	926
672.558	894
672.609	924
672.661	952
672.713	930
672.765	916
672.816	940
672.868	962
672.92	922
672.971	928
673.023	928
673.075	928
673.127	928
673.178	924
673.23	972
673.282	930
673.334	960
673.385	944
673.437	928
673.489	954
673.54	956
673.592	956
673.644	942
673.696	950
673.747	958
673.799	960
673.851	916
673.903	940
673.954	968
674.006	950
674.058	942
674.109	950
674.161	978
674.213	930
674.265	970
674.316	998
674.368	974
674.42	952
674.471	968
674.523	934
674.575	998
674.627	986
674.678	972
674.73	974
674.782	954
674.833	972
674.885	968
674.937	998
674.989	970
675.04	982
675.092	952
675.144	962
675.195	948
675.247	940
675.299	988
675.351	968
675.402	920
675.454	950
675.506	972
675.557	966
675.609	964
675.661	976
675.713	984
675.764	958
675.816	1008
675.868	972
675.919	974
675.971	974
676.023	970
676.074	956
676.126	972
676.178	986
676.23	952
676.281	994
676.333	1022
676.385	924
676.436	966
676.488	970
676.54	996
676.591	948
676.643	960
676.695	998
676.747	972
676.798	988
676.85	982
676.902	956
676.953	1010
677.005	984
677.057	980
677.108	976
677.16	980
677.212	994
677.263	968
677.315	1020
677.367	1008
677.419	1014
677.47	980
677.522	996
677.574	964
677.625	990
677.677	986
677.729	1016
677.78	984
677.832	982
677.884	986
677.935	974
677.987	1004
678.039	980
678.091	976
678.142	976
678.194	988
678.246	1002
678.297	956
678.349	1002
678.401	984
678.452	988
678.504	976
678.556	974
678.607	994
678.659	964
678.711	1006
678.762	1010
678.814	1000
678.866	956
678.917	986
678.969	990
679.021	992
679.072	990
679.124	1000
679.176	996
679.227	994
679.279	966
679.331	984
679.382	980
679.434	984
679.486	974
679.537	1026
679.589	1006
679.641	1028
679.692	974
679.744	998
679.796	968
679.847	1000
679.899	1004
679.951	1002
680.003	1002
680.054	976
680.106	962
680.157	1020
680.209	980
680.261	988
680.312	972
680.364	974
680.416	982
680.467	972
680.519	1014
680.571	1004
680.622	996
680.674	994
680.726	1008
680.777	1004
680.829	978
680.881	986
680.932	994
680.984	1012
681.036	1022
681.087	1014
681.139	1030
681.191	996
681.242	1030
681.294	1020
681.346	990
681.397	1030
681.449	1008
681.501	1042
681.552	1018
681.604	976
681.656	984
681.707	1014
681.759	984
681.81	1020
681.862	992
681.914	1010
681.965	1024
682.017	1008
682.069	1036
682.12	1030
682.172	1024
682.224	1000
682.275	998
682.327	1024
682.379	1008
682.43	1030
682.482	1040
682.533	1034
682.585	1010
682.637	992
682.688	1028
682.74	1022
682.792	1000
682.843	1032
682.895	1016
682.947	1026
682.998	1034
683.05	1024
683.102	1036
683.153	996
683.205	1002
683.256	1022
683.308	1024
683.36	1034
683.411	1038
683.463	1004
683.515	1000
683.566	1024
683.618	1032
683.669	1020
683.721	1018
683.773	1006
683.824	994
683.876	1010
683.928	1018
683.979	996
684.031	1050
684.082	998
684.134	1010
684.186	982
684.237	1052
684.289	994
684.341	1016
684.392	1006
684.444	1038
684.495	966
684.547	1012
684.599	1036
684.65	1034
684.702	992
684.754	994
684.805	1020
684.857	1014
684.908	1010
684.96	1000
685.012	992
685.063	1024
685.115	980
685.166	1012
685.218	1016
685.27	1020
685.321	994
685.373	1006
685.424	1036
685.476	1028
685.528	980
685.579	998
685.631	1012
685.683	1012
685.734	1022
685.786	970
685.837	1012
685.889	1002
685.941	974
685.992	1006
686.044	1006
686.095	990
686.147	998
686.199	1002
686.25	1020
686.302	1006
686.353	1010
686.405	972
686.457	1008
686.508	994
686.56	992
686.611	1012
686.663	986
686.715	1006
686.766	986
686.818	1016
686.869	1028
686.921	956
686.973	982
687.024	1022
687.076	1002
687.127	986
687.179	1002
687.231	1002
687.282	1000
687.334	992
687.385	1000
687.437	974
687.489	1028
687.54	992
687.592	1004
687.643	996
687.695	1012
687.747	990
687.798	1010
687.85	1016
687.901	1010
687.953	1018
688.004	998
688.056	974
688.108	990
688.159	1004
688.211	1004
688.262	980
688.314	990
688.366	988
688.417	968
688.469	982
688.52	970
688.572	996
688.623	966
688.675	974
688.727	1016
688.778	954
688.83	1016
688.881	952
688.933	1012
688.984	994
689.036	980
689.088	980
689.139	946
689.191	930
689.242	998
689.294	994
689.346	992
689.397	996
689.449	986
689.5	968
689.552	968
689.603	1014
689.655	990
689.706	978
689.758	974
689.81	958
689.861	980
689.913	1004
689.964	984
690.016	978
690.067	960
690.119	996
690.171	984
690.222	950
690.274	948
690.325	956
690.377	946
690.428	930
690.48	956
690.531	992
690.583	968
690.635	982
690.686	978
690.738	946
690.789	992
690.841	970
690.892	966
690.944	998
690.996	978
691.047	1008
691.099	962
691.15	988
691.202	986
691.253	970
691.305	960
691.356	956
691.408	972
691.459	968
691.511	960
691.563	978
691.614	946
691.666	974
691.717	964
691.769	988
691.82	964
691.872	988
691.923	972
691.975	946
692.026	950
692.078	940
692.13	948
692.181	962
692.233	952
692.284	984
692.336	964
692.387	976
692.439	936
692.49	968
692.542	984
692.593	1012
692.645	942
692.697	950
692.748	966
692.8	982
692.851	932
692.903	960
692.954	952
693.006	966
693.057	950
693.109	952
693.16	988
693.212	976
693.263	936
693.315	896
693.366	952
693.418	926
693.47	928
693.521	938
693.573	950
693.624	942
693.676	938
693.727	944
693.779	956
693.83	912
693.882	942
693.933	928
693.985	928
694.036	994
694.088	964
694.139	904
694.191	954
694.242	912
694.294	902
694.345	956
694.397	950
694.448	944
694.5	940
694.552	930
694.603	942
694.655	952
694.706	940
694.758	918
694.809	926
694.861	944
694.912	958
694.964	952
695.015	944
695.067	956
695.118	930
695.17	946
695.221	904
695.273	934
695.324	940
695.376	912
695.427	890
695.479	936
695.53	930
695.582	936
695.633	936
695.685	908
695.736	938
695.788	920
695.839	928
695.891	932
695.942	948
695.994	900
696.045	882
696.097	936
696.148	900
696.2	906
696.251	942
696.303	916
696.354	924
696.406	904
696.457	916
696.509	916
696.56	950
696.612	950
696.663	896
696.715	936
696.766	922
696.818	906
696.869	902
696.921	912
696.972	920
697.024	904
697.075	952
697.127	932
697.178	912
697.23	866
697.281	928
697.333	926
697.384	930
697.436	888
697.487	928
697.539	882
697.59	916
697.642	904
697.693	878
697.745	910
697.796	910
697.847	874
697.899	926
697.95	928
698.002	908
698.053	908
698.105	912
698.156	926
698.208	898
698.259	912
698.311	890
698.362	880
698.414	902
698.465	898
698.517	910
698.568	886
698.62	908
698.671	882
698.723	902
698.774	868
698.826	878
698.877	910
698.928	852
698.98	898
699.031	902
699.083	900
699.134	854
699.186	872
699.237	880
699.289	880
699.34	876
699.392	860
699.443	886
699.495	926
699.546	858
699.598	890
699.649	898
699.7	856
699.752	894
699.803	880
699.855	914
699.906	880
699.958	854
700.009	892
700.061	892
700.112	898
700.164	884
700.215	876
700.266	908
700.318	886
700.369	894
700.421	894
700.472	880
700.524	916
700.575	900
700.627	882
700.678	876
700.73	878
700.781	896
700.832	862
700.884	850
700.935	902
700.987	854
701.038	888
701.09	864
701.141	900
701.193	884
701.244	892
701.295	886
701.347	904
701.398	860
701.45	896
701.501	904
701.553	900
701.604	862
701.656	886
701.707	888
701.758	874
701.81	862
701.861	904
701.913	848
701.964	892
702.016	884
702.067	842
702.119	854
702.17	890
702.221	890
702.273	890
702.324	888
702.376	896
702.427	854
702.479	882
702.53	884
702.581	894
702.633	874
702.684	880
702.736	898
702.787	886
702.839	860
702.89	878
702.941	888
702.993	870
703.044	846
703.096	870
703.147	830
703.199	872
703.25	884
703.301	860
703.353	910
703.404	860
703.456	878
703.507	858
703.558	878
703.61	896
703.661	864
703.713	886
703.764	868
703.816	846
703.867	874
703.918	860
703.97	862
704.021	856
704.073	850
704.124	890
704.175	862
704.227	888
704.278	870
704.33	834
704.381	870
704.432	886
704.484	876
704.535	866
704.587	884
704.638	864
704.69	872
704.741	858
704.792	888
704.844	874
704.895	880
704.947	872
704.998	850
705.049	860
705.101	848
705.152	830
705.204	854
705.255	870
705.306	856
705.358	834
705.409	876
705.461	858
705.512	844
705.563	870
705.615	842
705.666	840
705.718	844
705.769	822
705.82	864
705.872	872
705.923	864
705.974	830
706.026	874
706.077	850
706.129	868
706.18	834
706.231	850
706.283	858
706.334	854
706.386	842
706.437	844
706.488	820
706.54	864
706.591	826
706.643	812
706.694	816
706.745	844
706.797	824
706.848	842
706.899	812
706.951	830
707.002	826
707.054	802
707.105	826
707.156	806
707.208	842
707.259	848
707.31	838
707.362	840
707.413	820
707.465	826
707.516	806
707.567	814
707.619	790
707.67	828
707.721	838
707.773	836
707.824	844
707.876	814
707.927	840
707.978	830
708.03	820
708.081	812
708.132	840
708.184	816
708.235	826
708.287	820
708.338	800
708.389	820
708.441	856
708.492	826
708.543	842
708.595	818
708.646	814
708.697	816
708.749	850
708.8	776
708.852	818
708.903	828
708.954	818
709.006	808
709.057	808
709.108	810
709.16	800
709.211	834
709.262	800
709.314	828
709.365	810
709.416	854
709.468	810
709.519	802
709.57	814
709.622	810
709.673	818
709.725	830
709.776	810
709.827	810
709.879	784
709.93	778
709.981	812
710.033	800
710.084	820
710.135	810
710.187	810
710.238	814
710.289	830
710.341	776
710.392	798
710.443	818
710.495	810
710.546	798
710.597	820
710.649	840
710.7	828
710.751	810
710.803	768
710.854	814
710.905	780
710.957	796
711.008	802
711.059	802
711.111	808
711.162	828
711.213	786
711.265	805.931
711.316	821.999
711.367	810.065
711.419	794.518
711.47	788.915
711.521	787.826
711.573	773.149
711.624	787.745
711.675	787.275
711.727	806.055
711.778	785
711.829	786.845
711.881	799.711
711.932	772.582
711.983	809.032
712.035	798.01
712.086	816.463
712.137	817.965
712.189	791.954
712.24	772.987
712.291	773.753
712.343	761.684
712.394	762.38
712.445	759.931
712.496	796.105
712.548	786.726
712.599	785.591
712.65	756.24
712.702	780.845
712.753	770.763
712.804	778.502
712.856	779.608
712.907	805.85
712.958	782.88
713.01	777.057
713.061	751.857
713.112	761.364
713.164	780.654
713.215	772.874
713.266	765.974
713.317	765.196
713.369	769.883
713.42	771.621
713.471	777.645
713.523	760.04
713.574	775.367
713.625	782.966
713.677	782.738
713.728	782.711
713.779	760.353
713.831	750.692
713.882	750.926
713.933	752.47
713.984	764.538
714.036	773.734
714.087	762.449
714.138	755.623
714.19	765.112
714.241	760.925
714.292	758.835
714.343	753.471
714.395	764.31
714.446	755.03
714.497	761.767
714.549	752.933
714.6	743.362
714.651	748.177
714.703	750.71
714.754	756.816
714.805	747.519
714.856	754.537
714.908	755.845
714.959	731.224
715.01	735.641
715.062	747.578
715.113	741.816
715.164	754.322
715.215	761.858
715.267	745.844
715.318	742.569
715.369	745.706
715.421	747.859
715.472	751.801
715.523	757.369
715.574	747.337
715.626	749.087
715.677	729.453
715.728	744.532
715.779	724.9
715.831	737.125
715.882	735.511
715.933	739.448
715.985	748.261
716.036	738.929
716.087	709.776
716.138	730.647
716.19	723.564
716.241	726.027
716.292	737.558
716.343	744.695
716.395	729.884
716.433	712
716.485	720
716.536	738
716.588	712
716.639	722
716.691	720
716.742	732
716.794	702
716.845	750
716.897	744
716.948	718
717	696
717.052	722
717.103	692
717.155	696
717.206	704
717.258	696
717.309	718
717.361	732
717.412	704
717.464	712
717.515	724
717.567	724
717.618	698
717.67	694
717.721	708
717.773	728
717.824	728
717.876	712
717.927	708
717.979	682
718.03	736
718.082	736
718.133	720
718.185	714
718.237	728
718.288	714
718.34	692
718.391	714
718.443	684
718.494	714
718.546	700
718.597	728
718.649	728
718.7	720
718.752	690
718.803	704
718.855	738
718.906	724
718.958	684
719.009	720
719.061	684
719.112	692
719.164	682
719.215	670
719.267	718
719.318	714
719.37	706
719.421	702
719.473	690
719.524	718
719.576	680
719.627	686
719.679	694
719.73	706
719.782	660
719.833	708
719.885	692
719.936	658
719.988	696
720.039	676
720.091	682
720.142	692
720.194	688
720.245	652
720.297	682
720.348	692
720.4	672
720.451	672
720.503	686
720.554	704
720.606	668
720.657	676
720.709	666
720.76	674
720.812	666
720.863	678
720.915	694
720.966	676
721.018	668
721.069	658
721.121	704
721.172	668
721.224	690
721.275	650
721.327	666
721.378	646
721.43	678
721.481	640
721.532	666
721.584	666
721.635	676
721.687	652
721.738	660
721.79	634
721.841	652
721.893	646
721.944	674
721.996	658
722.047	658
722.099	652
722.15	658
722.202	642
722.253	642
722.305	672
722.356	666
722.408	644
722.459	638
722.511	660
722.562	660
722.614	658
722.665	660
722.716	662
722.768	658
722.819	676
722.871	658
722.922	672
722.974	644
723.025	630
723.077	654
723.128	672
723.18	634
723.231	656
723.283	628
723.334	614
723.386	624
723.437	658
723.488	668
723.54	660
723.591	652
723.643	642
723.694	608
723.746	638
723.797	634
723.849	650
723.9	654
723.952	634
724.003	644
724.055	642
724.106	628
724.157	652
724.209	634
724.26	626
724.312	630
724.363	628
724.415	610
724.466	614
724.518	604
724.569	638
724.621	628
724.672	652
724.723	610
724.775	606
724.826	634
724.878	604
724.929	610
724.981	612
725.032	596
725.084	642
725.135	596
725.187	614
725.238	618
725.289	640
725.341	618
725.392	642
725.444	616
725.495	616
725.547	612
725.598	620
725.65	614
725.701	634
725.752	616
725.804	620
725.855	606
725.907	626
725.958	594
726.01	646
726.061	618
726.112	610
726.164	624
726.215	624
726.267	624
726.318	604
726.37	624
726.421	630
726.473	600
726.524	634
726.575	616
726.627	610
726.678	612
726.73	606
726.781	602
726.833	610
726.884	620
726.935	614
726.987	620
727.038	612
727.09	586
727.141	610
727.193	596
727.244	602
727.295	582
727.347	608
727.398	604
727.45	598
727.501	586
727.552	586
727.604	618
727.655	624
727.707	600
727.758	576
727.81	584
727.861	600
727.912	596
727.964	612
728.015	592
728.067	624
728.118	590
728.17	566
728.221	602
728.272	610
728.324	594
728.375	564
728.427	604
728.478	586
728.529	606
728.581	598
728.632	598
728.684	568
728.735	570
728.786	562
728.838	606
728.889	582
728.941	578
728.992	572
729.044	576
729.095	586
729.146	574
729.198	554
729.249	584
729.301	550
729.352	576
729.403	546
729.455	580
729.506	578
729.558	568
729.609	576
729.66	572
729.712	554
729.763	538
729.815	596
729.866	574
729.917	556
729.969	558
730.02	572
730.072	552
730.123	572
730.174	574
730.226	554
730.277	566
730.329	564
730.38	546
730.431	550
730.483	564
730.534	566
730.586	558
730.637	534
730.688	544
730.74	570
730.791	570
730.842	558
730.894	552
730.945	554
730.997	560
731.048	554
731.099	566
731.151	560
731.202	530
731.254	546
731.305	554
731.356	528
731.408	558
731.459	562
731.51	554
731.562	540
731.613	570
731.665	554
731.716	564
731.767	534
731.819	552
731.87	544
731.922	554
731.973	566
732.024	550
732.076	546
732.127	532
732.178	526
732.23	552
732.281	540
732.333	534
732.384	536
732.435	540
732.487	554
732.538	502
732.589	536
732.641	560
732.692	504
732.744	558
732.795	530
732.846	518
732.898	564
732.949	526
733	560
733.052	530
733.103	570
733.154	514
733.206	534
733.257	510
733.309	528
733.36	528
733.411	550
733.463	528
733.514	516
733.565	534
733.617	506
733.668	526
733.719	530
733.771	522
733.822	566
733.873	530
733.925	554
733.976	536
734.028	508
734.079	532
734.13	536
734.182	520
734.233	520
734.284	552
734.336	550
734.387	544
734.438	506
734.49	510
734.541	532
734.592	522
734.644	540
734.695	528
734.747	532
734.798	530
734.849	528
734.901	554
734.952	542
735.003	526
735.055	532
735.106	534
735.157	544
735.209	556
735.26	534
735.311	536
735.363	514
735.414	540
735.465	548
735.517	536
735.568	528
735.619	534
735.671	530
735.722	548
735.773	534
735.825	526
735.876	506
735.927	534
735.979	546
736.03	516
736.081	540
736.133	560
736.184	554
736.235	532
736.287	536
736.338	542
736.389	524
736.441	528
736.492	512
736.543	532
736.595	530
736.646	548
736.697	538
736.749	556
736.8	534
736.851	558
736.903	556
736.954	546
737.005	544
737.057	546
737.108	548
737.159	540
737.211	548
737.262	558
737.313	560
737.365	570
737.416	560
737.467	576
737.518	536
737.57	534
737.621	560
737.672	572
737.724	554
737.775	538
737.826	568
737.878	578
737.929	536
737.98	576
738.032	554
738.083	576
738.134	554
738.186	578
738.237	564
738.288	554
738.339	556
738.391	570
738.442	568
738.493	570
738.545	564
738.596	552
738.647	574
738.699	580
738.75	572
738.801	564
738.853	556
738.904	570
738.955	552
739.006	542
739.058	568
739.109	554
739.16	540
739.212	574
739.263	556
739.314	564
739.366	558
739.417	538
739.468	546
739.519	542
739.571	544
739.622	524
739.673	548
739.725	516
739.776	522
739.827	530
739.878	538
739.93	524
739.981	522
740.032	512
740.084	542
740.135	512
740.186	504
740.237	508
740.289	534
740.34	528
740.391	506
740.443	494
740.494	504
740.545	486
740.596	496
740.648	502
740.699	524
740.75	506
740.802	494
740.853	502
740.904	496
740.956	486
741.007	486
741.058	512
741.109	516
741.161	518
741.212	500
741.263	486
741.314	504
741.366	510
741.417	490
741.468	490
741.52	504
741.571	498
741.622	486
741.673	478
741.725	502
741.776	516
741.827	496
741.878	498
741.93	466
741.981	508
742.032	468
742.083	500
742.135	492
742.186	504
742.237	494
742.289	502
742.34	492
742.391	506
742.442	494
742.494	496
742.545	484
742.596	494
742.647	488
742.699	460
742.75	478
742.801	486
742.852	480
742.904	460
742.955	480
743.006	474
743.057	482
743.109	478
743.16	470
743.211	482
743.263	510
743.314	462
743.365	478
743.416	454
743.468	468
743.519	466
743.57	476
743.621	474
743.672	490
743.724	468
743.775	466
743.826	490
743.878	462
743.929	480
743.98	450
744.031	470
744.083	450
744.134	480
744.185	458
744.236	466
744.287	470
744.339	474
744.39	454
744.441	470
744.492	450
744.544	454
744.595	450
744.646	450
744.697	462
744.749	470
744.8	452
744.851	468
744.902	464
744.954	474
745.005	450
745.056	478
745.107	450
745.159	452
745.21	450
745.261	454
745.312	468
745.363	454
745.415	430
745.466	462
745.517	450
745.568	456
745.62	450
745.671	450
745.722	460
745.773	442
745.824	442
745.876	458
745.927	450
745.978	480
746.029	444
746.081	454
746.132	452
746.183	444
746.234	452
746.285	452
746.337	460
746.388	452
746.439	430
746.49	446
746.542	476
746.593	430
746.644	448
746.695	426
746.746	440
746.798	448
746.849	428
746.9	444
746.951	460
747.003	442
747.054	430
747.105	432
747.156	428
747.207	446
747.259	442
747.31	434
747.361	428
747.412	426
747.463	430
747.515	454
747.566	450
747.617	454
747.668	420
747.719	438
747.771	444
747.822	434
747.873	430
747.924	414
747.975	434
748.027	450
748.078	428
748.129	428
748.18	434
748.231	424
748.283	442
748.334	414
748.385	428
748.436	446
748.487	420
748.539	430
748.59	426
748.641	428
748.692	408
748.743	418
748.795	458
748.846	446
748.897	422
748.948	406
748.999	440
749.05	424
749.102	442
749.153	436
749.204	422
749.255	406
749.306	436
749.358	424
749.409	454
749.46	420
749.511	440
749.562	418
749.614	410
749.665	398
749.716	412
749.767	432
749.818	432
749.869	412
749.921	430
749.972	418
750.023	410
750.074	416
750.125	416
750.177	408
750.228	408
750.279	426
750.33	426
750.381	408
750.432	430
750.484	444
750.535	422
750.586	382
750.637	402
750.688	418
750.739	412
750.791	438
750.842	422
750.893	418
750.944	388
750.995	408
751.046	436
751.098	424
751.149	420
751.2	412
751.251	406
751.302	416
751.353	410
751.404	412
751.456	396
751.507	404
751.558	408
751.609	410
751.66	410
751.711	420
751.763	392
751.814	390
751.865	412
751.916	408
751.967	386
752.018	416
752.07	402
752.121	418
752.172	420
752.223	384
752.274	408
752.325	410
752.376	392
752.428	406
752.479	398
752.53	414
752.581	414
752.632	412
752.683	412
752.734	392
752.786	400
752.837	398
752.888	410
752.939	378
752.99	388
753.041	378
753.092	388
753.144	404
753.195	374
753.246	396
753.297	372
753.348	396
753.399	388
753.45	408
753.502	398
753.553	388
753.604	396
753.655	396
753.706	392
753.757	370
753.808	410
753.859	386
753.911	392
753.962	392
754.013	394
754.064	400
754.115	366
754.166	390
754.217	388
754.269	384
754.32	398
754.371	376
754.422	382
754.473	380
754.524	398
754.575	400
754.626	380
754.678	380
754.729	388
754.78	376
754.831	362
754.882	378
754.933	370
754.984	372
755.035	380
755.086	376
755.138	368
755.189	396
755.24	376
755.291	382
755.342	368
755.393	352
755.444	376
755.495	378
755.547	374
755.598	368
755.649	404
755.7	372
755.751	390
755.802	354
755.853	364
755.904	386
755.955	376
756.006	366
756.058	358
756.109	374
756.16	376
756.211	352
756.262	372
756.313	366
756.364	348
756.415	362
756.466	370
756.518	376
756.569	368
756.62	354
756.671	376
756.722	374
756.773	360
756.824	360
756.875	378
756.926	376
756.977	356
757.029	352
757.08	364
757.131	372
757.182	374
757.233	360
757.284	386
757.335	376
757.386	372
757.437	366
757.488	374
757.539	366
757.59	362
757.642	358
757.693	360
757.744	374
757.795	374
757.846	366
757.897	350
757.948	380
757.999	360
758.05	350
758.101	360
758.152	348
758.203	370
758.255	364
758.306	350
758.357	360
758.408	358
758.459	330
758.51	353.972
758.561	369.707
758.612	365.813
758.663	357.644
758.714	344.953
758.765	366.737
758.816	366.108
758.867	365.447
758.919	350.767
758.97	350.74
759.021	361.816
759.072	343.179
759.123	350.708
759.174	369.703
759.225	347.414
759.276	354.418
759.327	358.062
759.378	355.177
759.429	343.621
759.48	353.219
759.531	347.472
759.582	344.857
759.633	338.14
759.685	339.995
759.736	343.539
759.787	360.923
759.838	353.19
759.889	339.997
759.94	334.557
759.991	356.368
760.042	350.958
760.093	344.783
760.144	352.552
760.195	348.553
760.246	357.004
760.297	355.015
760.348	325.633
760.399	323.814
760.45	330.755
760.501	343.217
760.552	334.444
760.603	337.337
760.655	332.5
760.706	335.793
760.757	330.112
760.808	336.493
760.859	326.206
760.91	328.264
760.961	330.556
761.012	344.411
761.063	338.02
761.114	329.107
761.165	327.382
761.216	341.893
761.267	340.783
761.318	335.651
761.369	330.008
761.42	335.083
761.471	345.93
761.522	325.044
761.573	335.388
761.624	320.665
761.675	330.713
761.726	314.995
761.777	335.77
761.828	326.281
761.88	339.623
761.931	318.769
761.982	328.37
762.033	321.083
762.084	322.247
762.135	327.943
762.186	343.837
762.237	321.482
762.288	328.67
762.339	316.024
762.39	329.818
762.441	320.169
762.492	323.623
762.543	323.118
762.594	309.899
762.645	314.032
762.696	313.133
762.747	324.694
762.798	321.941
762.849	313.051
762.9	313.967
762.951	311.451
763.002	320.685
763.053	326.061
763.104	315.104
763.155	321.926
763.206	315.641
763.257	315.925
763.308	319.523
763.359	313.791
763.41	314.649
763.461	318.012
763.512	309.349
763.563	310.529
763.614	307.78
763.665	309.137
763.678	310
763.729	320
763.78	324
763.832	312
763.883	322
763.934	338
763.986	308
764.037	304
764.088	332
764.139	332
764.191	316
764.242	314
764.293	308
764.345	320
764.396	316
764.447	306
764.498	318
764.55	314
764.601	308
764.652	308
764.704	298
764.755	298
764.806	302
764.857	304
764.909	298
764.96	310
765.011	314
765.062	298
765.114	300
765.165	308
765.216	320
765.268	292
765.319	310
765.37	314
765.421	310
765.473	302
765.524	320
765.575	308
765.626	316
765.678	306
765.729	308
765.78	310
765.831	286
765.883	280
765.934	298
765.985	296
766.036	300
766.088	312
766.139	312
766.19	292
766.242	294
766.293	302
766.344	306
766.395	292
766.447	314
766.498	296
766.549	288
766.6	302
766.652	310
766.703	302
766.754	296
766.805	304
766.857	280
766.908	298
766.959	290
767.01	276
767.062	286
767.113	288
767.164	300
767.215	282
767.267	288
767.318	304
767.369	290
767.42	298
767.472	302
767.523	300
767.574	278
767.625	286
767.677	292
767.728	294
767.779	294
767.83	298
767.882	280
767.933	292
767.984	288
768.035	286
768.087	304
768.138	276
768.189	280
768.24	270
768.292	300
768.343	306
768.394	284
768.445	280
768.497	282
768.548	280
768.599	286
768.65	296
768.701	302
768.753	288
768.804	274
768.855	286
768.906	278
768.958	270
769.009	274
769.06	262
769.111	284
769.163	282
769.214	286
769.265	280
769.316	274
769.367	264
769.419	262
769.47	274
769.521	288
769.572	278
769.624	284
769.675	282
769.726	292
769.777	274
769.828	272
769.88	264
769.931	280
769.982	272
770.033	276
770.085	264
770.136	260
770.187	288
770.238	284
770.289	274
770.341	274
770.392	274
770.443	266
770.494	266
770.546	266
770.597	254
770.648	250
770.699	248
770.75	270
770.802	266
770.853	270
770.904	258
770.955	260
771.006	288
771.058	282
771.109	268
771.16	276
771.211	270
771.263	252
771.314	246
771.365	254
771.416	270
771.467	278
771.519	282
771.57	262
771.621	278
771.672	260
771.723	254
771.775	250
771.826	254
771.877	270
771.928	260
771.979	240
772.031	276
772.082	256
772.133	266
772.184	254
772.235	254
772.287	264
772.338	252
772.389	260
772.44	266
772.491	262
772.543	258
772.594	246
772.645	260
772.696	268
772.747	266
772.799	248
772.85	258
772.901	266
772.952	266
773.003	244
773.055	240
773.106	260
773.157	248
773.208	246
773.259	246
773.31	250
773.362	258
773.413	262
773.464	280
773.515	254
773.566	256
773.618	236
773.669	238
773.72	262
773.771	258
773.822	244
773.873	238
773.925	264
773.976	254
774.027	244
774.078	252
774.129	250
774.18	244
774.232	262
774.283	238
774.334	240
774.385	236
774.436	240
774.488	236
774.539	258
774.59	240
774.641	248
774.692	232
774.743	240
774.795	242
774.846	248
774.897	236
774.948	242
774.999	246
775.05	240
775.102	230
775.153	234
775.204	232
775.255	240
775.306	228
775.357	244
775.409	238
775.46	224
775.511	228
775.562	234
775.613	246
775.664	238
775.716	238
775.767	240
775.818	238
775.869	248
775.92	238
775.971	230
776.023	228
776.074	242
776.125	248
776.176	228
776.227	230
776.278	246
776.329	232
776.381	236
776.432	240
776.483	244
776.534	236
776.585	228
776.636	232
776.688	244
776.739	232
776.79	230
776.841	224
776.892	238
776.943	226
776.994	234
777.046	236
777.097	224
777.148	224
777.199	242
777.25	246
777.301	228
777.352	232
777.404	230
777.455	240
777.506	240
777.557	226
777.608	232
777.659	228
777.71	236
777.762	226
777.813	226
777.864	232
777.915	232
777.966	238
778.017	220
778.068	226
778.12	212
778.171	230
778.222	234
778.273	206
778.324	226
778.375	230
778.426	242
778.477	210
778.529	224
778.58	210
778.631	210
778.682	218
778.733	220
778.784	232
778.835	220
778.886	216
778.938	212
778.989	226
779.04	218
779.091	216
779.142	214
779.193	230
779.244	214
779.295	208
779.347	222
779.398	222
779.449	232
779.5	204
779.551	202
779.602	212
779.653	202
779.704	210
779.755	222
779.807	220
779.858	244
779.909	210
779.96	216
780.011	216
780.062	208
780.113	206
780.164	222
780.216	224
780.267	224
780.318	194
780.369	220
780.42	200
780.471	222
780.522	192
780.573	204
780.624	210
780.675	218
780.727	204
780.778	216
780.829	216
780.88	216
780.931	186
780.982	202
781.033	212
781.084	204
781.135	204
781.187	194
781.238	228
781.289	196
781.34	206
781.391	198
781.442	214
781.493	202
781.544	198
781.595	198
781.646	216
781.698	192
781.749	190
781.8	204
781.851	194
781.902	200
781.953	210
782.004	190
782.055	204
782.106	188
782.157	202
782.208	198
782.26	208
782.311	210
782.362	210
782.413	194
782.464	188
782.515	206
782.566	204
782.617	186
782.668	200
782.719	208
782.77	208
782.821	200
782.872	198
782.924	198
782.975	190
783.026	206
783.077	200
783.128	198
783.179	206
783.23	172
783.281	212
783.332	198
783.383	206
783.434	206
783.485	188
783.536	198
783.588	214
783.639	214
783.69	208
783.741	192
783.792	188
783.843	206
783.894	194
783.945	188
783.996	200
784.047	194
784.098	202
784.149	194
784.2	202
784.252	198
784.303	176
784.354	190
784.405	194
784.456	188
784.507	188
784.558	194
784.609	182
784.66	180
784.711	196
784.762	186
784.813	194
784.864	188
784.915	192
784.966	202
785.017	190
785.068	190
785.12	182
785.171	194
785.222	186
785.273	192
785.324	172
785.375	198
785.426	184
785.477	198
785.528	186
785.579	198
785.63	196
785.681	198
785.732	176
785.783	192
785.834	174
785.885	190
785.936	184
785.987	196
786.038	176
786.089	180
786.141	196
786.192	188
786.243	190
786.294	166
786.345	178
786.396	176
786.447	180
786.498	184
786.549	182
786.6	194
786.651	196
786.702	192
786.753	164
786.804	188
786.855	182
786.906	180
786.957	178
787.008	174
787.059	182
787.11	168
787.161	174
787.212	170
787.263	188
787.314	190
787.365	174
787.416	182
787.467	202
787.518	168
787.57	172
787.621	168
787.672	186
787.723	166
787.774	172
787.825	164
787.876	190
787.927	174
787.978	174
788.029	176
788.08	186
788.131	184
788.182	154
788.233	176
788.284	180
788.335	186
788.386	176
788.437	164
788.488	186
788.539	162
788.59	172
788.641	176
788.692	160
788.743	166
788.794	170
788.845	152
788.896	178
788.947	158
788.998	174
789.049	170
789.1	170
789.151	182
789.202	186
789.253	160
789.304	162
789.355	172
789.406	172
789.457	152
789.508	160
789.559	160
789.61	170
789.661	156
789.712	154
789.763	172
789.814	178
789.865	160
789.916	156
789.967	170
790.018	162
790.069	170
790.12	170
790.171	178
790.222	172
790.273	172
790.324	162
790.375	164
790.426	168
790.477	172
790.528	160
790.579	154
790.63	142
790.681	160
790.732	162
790.783	184
790.834	168
790.885	162
790.936	158
790.987	164
791.038	160
791.089	166
791.14	160
791.191	160
791.242	154
791.293	166
791.344	158
791.395	160
791.446	162
791.497	150
791.548	148
791.599	148
791.65	160
791.701	174
791.752	152
791.803	154
791.854	156
791.905	156
791.956	164
792.007	170
792.058	160
792.109	164
792.16	162
792.211	164
792.262	158
792.313	156
792.363	156
792.414	148
792.465	166
792.516	170
792.567	162
792.618	150
792.669	158
792.72	156
792.771	162
792.822	146
792.873	146
792.924	162
792.975	146
793.026	156
793.077	152
793.128	142
793.179	156
793.23	162
793.281	154
793.332	148
793.383	162
793.434	142
793.485	164
793.536	146
793.587	150
793.638	146
793.689	136
793.74	148
793.79	156
793.841	150
793.892	150
793.943	150
793.994	160
794.045	144
794.096	138
794.147	154
794.198	142
794.249	158
794.3	134
794.351	156
794.402	154
794.453	142
794.504	150
794.555	154
794.606	150
794.657	142
794.708	146
794.758	158
794.809	158
794.86	148
794.911	148
794.962	138
795.013	154
795.064	140
795.115	146
795.166	148
795.217	146
795.268	144
795.319	136
795.37	150
795.421	156
795.472	138
795.523	130
795.573	154
795.624	146
795.675	150
795.726	146
795.777	136
795.828	136
795.879	146
795.93	146
795.981	138
796.032	142
796.083	142
796.134	138
796.185	152
796.236	146
796.286	138
796.337	136
796.388	132
796.439	160
796.49	138
796.541	126
796.592	150
796.643	140
796.694	148
796.745	142
796.796	140
796.847	144
796.897	136
796.948	138
796.999	136
797.05	140
797.101	144
797.152	142
797.203	140
797.254	136
797.305	136
797.356	132
797.407	134
797.458	132
797.508	150
797.559	140
797.61	138
797.661	140
797.712	138
797.763	138
797.814	138
797.865	134
797.916	150
797.967	138
798.018	134
798.068	138
798.119	136
798.17	134
798.221	126
798.272	134
798.323	142
798.374	140
798.425	132
798.476	132
798.526	128
798.577	134
798.628	110
798.679	140
798.73	138
798.781	156
798.832	130
798.883	126
798.934	144
798.984	124
799.035	134
799.086	136
799.137	130
799.188	140
799.239	126
799.29	128
799.341	126
799.392	136
799.443	122
799.493	128
799.544	138
799.595	144
799.646	136
799.697	124
799.748	140
799.799	130
799.85	128
799.9	126
799.951	140
800.002	120
800.053	138
800.104	122
800.155	134
800.206	130
800.257	124
800.307	136
800.358	124
800.409	138
800.46	126
800.511	124
800.562	134
800.613	138
800.664	136
800.714	124
800.765	132
800.816	130
800.867	122
800.918	118
800.969	128
801.02	110
801.07	128
801.121	122
801.172	136
801.223	124
801.274	118
801.325	116
801.376	116
801.427	124
801.477	116
801.528	120
801.579	122
801.63	132
801.681	122
801.732	120
801.783	114
801.833	132
801.884	122
801.935	126
801.986	110
802.037	128
802.088	124
802.139	110
802.189	118
802.24	120
802.291	126
802.342	106
802.393	116
802.444	132
802.495	128
802.545	116
802.596	118
802.647	126
802.698	120
802.749	130
802.8	118
802.85	122
802.901	118
802.952	116
803.003	114
803.054	110
803.105	126
803.155	116
803.206	108
803.257	114
803.308	124
803.359	118
803.41	100
803.46	118
803.511	124
803.562	118
803.613	110
803.664	108
803.715	114
803.765	118
803.816	112
803.867	114
803.918	120
803.969	122
804.02	126
804.07	110
804.121	112
804.172	126
804.223	110
804.274	110
804.325	122
804.375	120
804.426	112
804.477	112
804.528	118
804.579	114
804.63	122
804.68	96
804.731	132
804.782	108
804.833	122
804.884	104
804.934	124
804.985	110
805.036	108
805.087	114
805.138	108
805.188	112
805.239	118
805.29	108
805.341	118
805.392	126
805.443	126
805.493	98.0471
805.544	110.069
805.595	125.869
805.646	112.083
805.697	115.496
805.747	110.121
805.798	116.743
805.849	122.798
805.9	111.494
805.951	107.48
806.001	108.122
806.052	111.872
806.103	101.02
806.154	106.693
806.205	113.218
806.255	106.563
806.306	101.88
806.357	112.161
806.408	102.644
806.459	106.747
806.509	105.586
806.56	98.8492
806.611	115.059
806.662	109.364
806.713	115.862
806.763	102.025
806.814	109.087
806.865	112.471
806.916	104.324
806.967	107.961
807.017	99.6675
807.068	104.875
807.119	104.227
807.17	97.701
807.22	108.122
807.271	106.85
807.322	97.451
807.373	104.181
807.424	110.388
807.474	114.619
807.525	107.903
807.576	99.3714
807.627	104.423
807.678	114.028
807.728	106.324
807.779	101.664
807.83	109.265
807.881	106.365
807.931	102.153
807.982	103.597
808.033	109.585
808.084	107.905
808.135	112.616
808.185	96.3671
808.236	111.295
808.287	105.493
808.338	100.163
808.388	101.841
808.439	95.1952
808.49	107.029
808.541	98.7435
808.591	95.5882
808.642	103.216
808.693	105.161
808.744	112.684
808.795	104.413
808.845	98.9118
808.896	116.401
808.947	98.7939
808.998	102.33
809.048	99.5141
809.099	96.6391
809.15	99.1078
809.201	99.2817
809.251	102.922
809.302	107.241
809.353	105.054
809.404	107.748
809.454	97.6917
809.505	110.959
809.556	103.327
809.607	106.794
809.658	105.683
809.708	101.467
809.759	103.972
809.81	93.115
809.861	91.0882
809.911	97.0511
809.962	107.424
810.013	107.265
810.064	100.297
810.114	102.944
810.165	96.8452
810.216	87.8706
810.267	102.649
810.317	106.25
810.368	98.2468
810.419	105.025
810.469	89.6551
810.52	90.4085
810.571	106.231
810.622	99.0629
810.627	98
810.678	102
810.729	92
810.78	106
810.831	92
810.882	94
810.933	98
810.984	92
811.035	110
811.086	90
811.137	90
811.188	106
811.239	100
811.29	90
811.341	100
811.392	94
811.443	106
811.494	98
811.545	94
811.596	90
811.648	92
811.699	98
811.75	94
811.801	98
811.852	86
811.903	96
811.954	96
812.005	102
812.056	98
812.107	96
812.158	92
812.209	88
812.26	106
812.311	96
812.362	84
812.413	106
812.464	98
812.515	100
812.566	94
812.617	92
812.668	104
812.719	88
812.77	90
812.821	88
812.872	98
812.923	102
812.974	88
813.025	96
813.076	92
813.127	90
813.178	88
813.229	92
813.28	98
813.331	100
813.382	82
813.433	90
813.484	92
813.535	92
813.586	94
813.637	100
813.688	100
813.739	98
813.79	76
813.841	90
813.892	96
813.943	94
813.994	90
814.045	98
814.096	92
814.147	96
814.198	86
814.249	80
814.3	92
814.351	90
814.402	88
814.453	90
814.504	104
814.555	94
814.606	90
814.657	84
814.708	100
814.759	96
814.81	82
814.861	92
814.912	84
814.963	96
815.014	76
815.065	96
815.116	88
815.167	88
815.217	86
815.268	84
815.319	94
815.37	92
815.421	84
815.472	96
815.523	102
815.574	96
815.625	88
815.676	92
815.727	88
815.778	94
815.829	96
815.88	92
815.931	88
815.982	94
816.033	86
816.084	88
816.135	98
816.186	78
816.237	82
816.288	92
816.339	88
816.39	90
816.441	88
816.492	76
816.543	88
816.594	96
816.645	92
816.696	94
816.747	88
816.798	86
816.849	94
816.9	94
816.951	94
817.001	86
817.052	92
817.103	74
817.154	94
817.205	90
817.256	90
817.307	80
817.358	90
817.409	90
817.46	84
817.511	84
817.562	86
817.613	96
817.664	92
817.715	80
817.766	88
817.817	94
817.868	84
817.919	84
817.97	82
818.021	86
818.071	88
818.122	80
818.173	74
818.224	98
818.275	82
818.326	68
818.377	88
818.428	84
818.479	88
818.53	94
818.581	82
818.632	86
818.683	86
818.734	82
818.785	80
818.836	86
818.887	72
818.938	80
818.988	88
819.039	86
819.09	94
819.141	78
819.192	76
819.243	88
819.294	84
819.345	84
819.396	86
819.447	100
819.498	84
819.549	68
819.6	78
819.651	94
819.702	96
819.753	90
819.803	74
819.854	88
819.905	80
819.956	88
820.007	86
820.058	86
820.109	86
820.16	76
820.211	82
820.262	90
820.313	90
820.364	82
820.415	78
820.465	84
820.516	82
820.567	78
820.618	66
820.669	88
820.72	80
820.771	80
820.822	78
820.873	86
820.924	90
820.975	84
821.026	78
821.076	84
821.127	84
821.178	86
821.229	78
821.28	72
821.331	84
821.382	78
821.433	80
821.484	86
821.535	78
821.586	80
821.637	72
821.687	82
821.738	82
821.789	80
821.84	74
821.891	80
821.942	88
821.993	90
822.044	82
822.095	84
822.146	90
822.196	82
822.247	78
822.298	66
822.349	82
822.4	80
822.451	76
822.502	72
822.553	84
822.604	84
822.655	76
822.706	76
822.756	74
822.807	90
822.858	74
822.909	82
822.96	82
823.011	84
823.062	68
823.113	82
823.164	80
823.214	86
823.265	76
823.316	78
823.367	74
823.418	78
823.469	72
823.52	74
823.571	72
823.622	78
823.672	78
823.723	74
823.774	90
823.825	74
823.876	84
823.927	74
823.978	80
824.029	80
824.08	72
824.13	80
824.181	88
824.232	74
824.283	82
824.334	66
824.385	78
824.436	78
824.487	74
824.537	78
824.588	72
824.639	80
824.69	68
824.741	66
824.792	66
824.843	72
824.893	70
824.944	72
824.995	86
825.046	74
825.097	72
825.148	78
825.199	68
825.25	78
825.3	78
825.351	58
825.402	78
825.453	80
825.504	82
825.555	68
825.606	68
825.657	80
825.707	66
825.758	76
825.809	72
825.86	78
825.911	80
825.962	74
826.013	70
826.063	82
826.114	70
826.165	70
826.216	72
826.267	72
826.318	74
826.369	80
826.419	64
826.47	74
826.521	74
826.572	74
826.623	72
826.674	74
826.725	76
826.775	70
826.826	68
826.877	80
826.928	76
826.979	66
827.03	72
827.08	80
827.131	74
827.182	76
827.233	70
827.284	74
827.335	72
827.386	66
827.436	64
827.487	66
827.538	84
827.589	66
827.64	66
827.691	90
827.741	66
827.792	74
827.843	72
827.894	72
827.945	78
827.996	76
828.046	70
828.097	76
828.148	72
828.199	62
828.25	64
828.301	76
828.351	76
828.402	74
828.453	60
828.504	76
828.555	68
828.606	74
828.656	68
828.707	74
828.758	70
828.809	72
828.86	66
828.911	70
828.961	70
829.012	72
829.063	70
829.114	68
829.165	78
829.216	68
829.266	66
829.317	76
829.368	62
829.419	68
829.47	60
829.52	66
829.571	70
829.622	64
829.673	64
829.724	76
829.774	64
829.825	72
829.876	66
829.927	68
829.978	70
830.029	70
830.079	68
830.13	66
830.181	74
830.232	70
830.283	66
830.333	70
830.384	72
830.435	72
830.486	66
830.537	64
830.587	58
830.638	76
830.689	62
830.74	70
830.791	74
830.841	72
830.892	60
830.943	62
830.994	70
831.045	74
831.095	56
831.146	56
831.197	74
831.248	64
831.299	56
831.349	68
831.4	58
831.451	66
831.502	66
831.553	60
831.603	76
831.654	72
831.705	60
831.756	66
831.807	66
831.857	80
831.908	70
831.959	56
832.01	68
832.061	64
832.111	66
832.162	68
832.213	66
832.264	68
832.315	58
832.365	62
832.416	60
832.467	72
832.518	64
832.568	54
832.619	60
832.67	68
832.721	66
832.772	70
832.822	70
832.873	60
832.924	68
832.975	50
833.025	62
833.076	74
833.127	64
833.178	60
833.229	66
833.279	68
833.33	74
833.381	68
833.432	62
833.482	68
833.533	70
833.584	58
833.635	62
833.685	72
833.736	76
833.787	70
833.838	60
833.889	66
833.939	68
833.99	64
834.041	64
834.092	72
834.142	72
834.193	64
834.244	58
834.295	72
834.345	66
834.396	52
834.447	60
834.498	66
834.548	68
834.599	64
834.65	64
834.701	78
834.751	64
834.802	56
834.853	54
834.904	70
834.954	64
835.005	66
835.056	58
835.107	62
835.157	68
835.208	58
835.259	60
835.31	62
835.36	70
835.411	68
835.462	58
835.513	68
835.563	68
835.614	64
835.665	70
835.716	62
835.766	74
835.817	60
835.868	46
835.919	70
835.969	60
836.02	58
836.071	68
836.122	66
836.172	68
836.223	66
836.274	58
836.325	58
836.375	62
836.426	58
836.477	52
836.528	68
836.578	66
836.629	68
836.68	54
836.73	66
836.781	68
836.832	66
836.883	70
836.933	66
836.984	72
837.035	66
837.086	58
837.136	68
837.187	68
837.238	60
837.288	58
837.339	58
837.39	58
837.441	64
837.491	58
837.542	62
837.593	62
837.643	60
837.694	58
837.745	66
837.796	62
837.846	60
837.897	56
837.948	60
837.999	54
838.049	66
838.1	66
838.151	56
838.201	66
838.252	64
838.303	66
838.354	54
838.404	64
838.455	68
838.506	60
838.556	62
838.607	74
838.658	68
838.708	54
838.759	52
838.81	68
838.861	70
838.911	50
838.962	52
839.013	70
839.063	58
839.114	56
839.165	56
839.216	60
839.266	58
839.317	62
839.368	52
839.418	74
839.469	68
839.52	52
839.57	60
839.621	60
839.672	60
839.722	52
839.773	62
839.824	62
839.875	64
839.925	50
839.976	58
840.027	56
840.077	66
840.128	64
840.179	56
840.229	68
840.28	62
840.331	62
840.381	54
840.432	66
840.483	64
840.534	50
840.584	54
840.635	60
840.686	58
840.736	54
840.787	52
840.838	60
840.888	54
840.939	68
840.99	56
841.04	64
841.091	56
841.142	52
841.192	54
841.243	52
841.294	70
841.344	64
841.395	50
841.446	60
841.496	60
841.547	62
841.598	44
841.648	56
841.699	70
841.75	60
841.8	50
841.851	58
841.902	54
841.952	62
842.003	60
842.054	46
842.104	56
842.155	62
842.206	58
842.256	54
842.307	62
842.358	60
842.408	64
842.459	56
842.51	60
842.56	60
842.611	52
842.662	48
842.712	54
842.763	64
842.814	52
842.864	50
842.915	58
842.966	62
843.016	54
843.067	60
843.118	60
843.168	66
843.219	56
843.269	40
843.32	66
843.371	52
843.421	54
843.472	40
843.523	56
843.573	62
843.624	52
843.675	50
843.725	60
843.776	64
843.827	60
843.877	42
843.928	58
843.979	58
844.029	58
844.08	50
844.13	58
844.181	58
844.232	66
844.282	48
844.333	62
844.384	64
844.434	52
844.485	52
844.536	56
844.586	50
844.637	64
844.687	50
844.738	48
844.789	66
844.839	48
844.89	52
844.941	64
844.991	58
845.042	58
845.092	44
845.143	60
845.194	56
845.244	60
845.295	50
845.346	46
845.396	54
845.447	62
845.497	44
845.548	52
845.599	52
845.649	52
845.7	46
845.75	54
845.801	50
845.852	60
845.902	48
845.953	50
846.004	56
846.054	52
846.105	58
846.155	48
846.206	52
846.257	60
846.307	48
846.358	44
846.409	62
846.459	60
846.51	34
846.56	48
846.611	52
846.661	62
846.712	50
846.763	50
846.813	58
846.864	58
846.915	46
846.965	46
847.016	52
847.066	52
847.117	58
847.168	42
847.218	62
847.269	44
847.319	62
847.37	50
847.421	60
847.471	50
847.522	52
847.572	46
847.623	56
847.674	44
847.724	60
847.775	52
847.825	50
847.876	62
847.926	54
847.977	50
848.028	52
848.078	52
848.129	50
848.179	48
848.23	54
848.281	52
848.331	46
848.382	54
848.432	58
848.483	46
848.534	54
848.584	50
848.635	56
848.685	54
848.736	46
848.786	42
848.837	48
848.888	56
848.938	48
848.989	36
849.039	48
849.09	54
849.14	54
849.191	44
849.242	42
849.292	44
849.343	56
849.393	44
849.444	46
849.494	54
849.545	48
849.596	48
849.646	46
849.697	52
849.747	54
849.798	40
849.848	38
849.899	60
849.95	54
850	44
850.051	48
850.101	44
850.152	62
850.202	48
850.253	52
850.303	60
850.354	54
850.405	52
850.455	48
850.506	54
850.556	52
850.607	44
850.657	52
850.708	50
850.758	52
850.809	48
850.86	46
850.91	54
850.961	50
851.011	54
851.062	44
851.112	62
851.163	54
851.213	48
851.264	40
851.314	50
851.365	50
851.416	48
851.466	44
851.517	56
851.567	54
851.618	48
851.668	44
851.719	44
851.769	54
851.82	46
851.87	48
851.921	52
851.971	44
852.022	50
852.073	40
852.123	42
852.174	54
852.224	52
852.275	50
852.325	50.0013
852.376	48.147
852.426	48.0519
852.477	44.3429
852.527	46.6895
852.578	50.1096
852.628	50.0003
852.679	40.75
852.729	47.1647
852.78	54.6622
852.831	65.6794
852.881	42.6828
852.932	47.759
852.982	50.235
853.033	50.5661
853.083	37.617
853.134	41.6111
853.184	49.0182
853.235	47.6038
853.285	44.39
853.336	46.376
853.386	51.9264
853.437	47.3393
853.487	46.8462
853.538	43.715
853.588	47.96
853.639	50.2864
853.689	45.9959
853.74	46.9331
853.79	46.59
853.841	49.0501
853.891	48.1832
853.942	48.7977
853.992	47.7315
854.043	48.0182
854.093	40.97
854.144	41.1727
854.194	49.75
854.245	42.31
854.295	42.37
854.346	38.0961
854.396	47.02
854.447	45.0767
854.497	42.5494
854.548	47.7194
854.598	49.45
854.649	51.4962
854.699	41.1247
854.75	42.06
854.8	45.3151
854.851	43.2316
854.901	44.1367
854.952	45.8312
855.002	40.4994
855.053	46.7321
855.103	46.3894
855.154	45.1098
855.204	41.7386
855.255	45.4294
855.305	47.6701
855.356	47.2167
855.406	46.6412
855.457	48.2845
855.507	47.8782
855.558	40.7352
855.608	38.5487
855.659	47.6441
855.709	49.777
855.76	41.4642
855.81	45.6976
855.861	44.1361
855.911	45.462
855.962	42.2094
856.012	42.12
856.063	43.06
856.113	46.0073
856.164	44.9489
856.214	41.55
856.265	46.0413
856.315	48.41
856.366	40.5234
856.416	37.11
856.467	40.6483
856.517	46.5486
856.568	47.6652
856.618	43.503
856.668	45.1769
856.719	49.5
856.769	49.31
856.82	47.7212
856.87	48.7868
856.921	47.9472
856.971	43.2228
857.022	42.65
857.072	39.6595
857.123	41.3458
857.173	46.8509
857.224	44.0206
857.274	43.9148
857.325	50.7382
857.352	54
857.403	40
857.453	36
857.504	46
857.555	46
857.606	38
857.656	40
857.707	46
857.758	48
857.809	40
857.859	42
857.91	44
857.961	52
858.012	48
858.063	38
858.113	46
858.164	50
858.215	32
858.266	34
858.316	46
858.367	56
858.418	50
858.469	40
858.519	44
858.57	44
858.621	44
858.672	50
858.722	38
858.773	44
858.824	56
858.875	40
858.925	48
858.976	52
859.027	44
859.078	44
859.128	36
859.179	48
859.23	44
859.281	40
859.331	46
859.382	40
859.433	42
859.483	38
859.534	40
859.585	44
859.636	54
859.686	46
859.737	42
859.788	52
859.839	30
859.889	46
859.94	36
859.991	44
860.042	44
860.092	36
860.143	38
860.194	48
860.245	48
860.295	50
860.346	44
860.397	46
860.447	48
860.498	50
860.549	38
860.6	50
860.65	40
860.701	38
860.752	32
860.802	50
860.853	52
860.904	52
860.955	38
861.005	46
861.056	42
861.107	48
861.158	40
861.208	46
861.259	50
861.31	42
861.36	46
861.411	44
861.462	42
861.513	46
861.563	36
861.614	42
861.665	44
861.715	50
861.766	42
861.817	48
861.868	50
861.918	44
861.969	40
862.02	50
862.07	46
862.121	46
862.172	38
862.223	42
862.273	44
862.324	42
862.375	42
862.425	46
862.476	48
862.527	42
862.577	44
862.628	48
862.679	48
862.73	40
862.78	40
862.831	34
862.882	52
862.932	46
862.983	40
863.034	40
863.084	38
863.135	48
863.186	44
863.237	42
863.287	46
863.338	48
863.389	40
863.439	40
863.49	44
863.541	56
863.591	38
863.642	46
863.693	50
863.744	38
863.794	42
863.845	52
863.896	40
863.946	40
863.997	48
864.048	38
864.098	44
864.149	44
864.2	46
864.25	40
864.301	44
864.352	46
864.402	50
864.453	40
864.504	44
864.555	40
864.605	34
864.656	40
864.707	40
864.757	46
864.808	40
864.859	36
864.909	36
864.96	38
865.011	42
865.061	42
865.112	34
865.163	46
865.213	46
865.264	38
865.315	40
865.365	44
865.416	42
865.467	42
865.517	48
865.568	46
865.619	44
865.669	34
865.72	42
865.771	44
865.821	38
865.872	38
865.923	40
865.973	48
866.024	42
866.075	46
866.125	32
866.176	44
866.227	44
866.277	46
866.328	40
866.379	44
866.429	40
866.48	42
866.531	40
866.581	42
866.632	46
866.683	32
866.733	36
866.784	48
866.835	42
866.885	38
866.936	42
866.987	38
867.037	46
867.088	42
867.138	44
867.189	36
867.24	42
867.29	32
867.341	46
867.392	44
867.442	48
867.493	42
867.544	40
867.594	56
867.645	44
867.696	36
867.746	36
867.797	42
867.848	40
867.898	42
867.949	40
867.999	42
868.05	40
868.101	34
868.151	36
868.202	42
868.253	50
868.303	44
868.354	42
868.405	42
868.455	36
868.506	40
868.556	42
868.607	44
868.658	38
868.708	36
868.759	42
868.81	44
868.86	44
868.911	42
868.961	42
869.012	42
869.063	48
869.113	38
869.164	36
869.215	40
869.265	46
869.316	42
869.367	34
869.417	38
869.468	44
869.518	40
869.569	40
869.62	46
869.67	38
869.721	36
869.771	36
869.822	36
869.873	46
869.923	46
869.974	30
870.025	38
870.075	34
870.126	48
870.176	42
870.227	36
870.278	48
870.328	42
870.379	36
870.43	30
870.48	48
870.531	44
870.581	30
870.632	32
870.683	40
870.733	42
870.784	34
870.834	30
870.885	40
870.936	40
870.986	26
871.037	38
871.087	46
871.138	40
871.189	40
871.239	40
871.29	42
871.34	48
871.391	38
871.442	38
871.492	44
871.543	40
871.593	38
871.644	36
871.695	36
871.745	44
871.796	34
871.846	38
871.897	38
871.948	40
871.998	40
872.049	44
872.099	42
872.15	38
872.201	40
872.251	42
872.302	40
872.352	38
872.403	42
872.453	38
872.504	44
872.555	42
872.605	34
872.656	34
872.706	40
872.757	42
872.808	40
872.858	34
872.909	42
872.959	40
873.01	40
873.06	32
873.111	36
873.162	38
873.212	42
873.263	36
873.313	46
873.364	40
873.415	46
873.465	30
873.516	40
873.566	34
873.617	42
873.667	34
873.718	32
873.769	38
873.819	50
873.87	34
873.92	36
873.971	46
874.021	40
874.072	36
874.123	44
874.173	44
874.224	42
874.274	36
874.325	38
874.375	40
874.426	40
874.477	38
874.527	36
874.578	44
874.628	44
874.679	28
874.729	30
874.78	38
874.83	46
874.881	38
874.932	26
874.982	40
875.033	36
875.083	36
875.134	38
875.184	42
875.235	42
875.285	30
875.336	36
875.387	40
875.437	50
875.488	34
875.538	38
875.589	42
875.639	38
875.69	40
875.74	30
875.791	50
875.841	40
875.892	34
875.943	32
875.993	36
876.044	42
876.094	42
876.145	36
876.195	42
876.246	38
876.296	38
876.347	30
876.397	36
876.448	40
876.499	40
876.549	34
876.6	42
876.65	38
876.701	36
876.751	32
876.802	42
876.852	40
876.903	40
876.953	36
877.004	34
877.054	32
877.105	42
877.155	32
877.206	30
877.257	44
877.307	40
877.358	40
877.408	34
877.459	40
877.509	32
877.56	42
877.61	30
877.661	36
877.711	38
877.762	42
877.812	38
877.863	42
877.913	46
877.964	32
878.014	32
878.065	38
878.115	42
878.166	32
878.216	26
878.267	44
878.318	48
878.368	32
878.419	22
878.469	42
878.52	40
878.57	34
878.621	32
878.671	42
878.722	42
878.772	34
878.823	28
878.873	34
878.924	42
878.974	36
879.025	28
879.075	42
879.126	36
879.176	44
879.227	50
879.277	44
879.328	44
879.378	36
879.429	30
879.479	34
879.53	46
879.58	42
879.631	36
879.681	40
879.732	36
879.782	36
879.833	38
879.883	46
879.934	42
879.984	34
880.035	28
880.085	42
880.136	42
880.186	38
880.237	34
880.287	40
880.338	44
880.388	34
880.439	42
880.489	46
880.54	44
880.59	34
880.641	40
880.691	40
880.742	48
880.792	36
880.842	38
880.893	44
880.943	42
880.994	34
881.044	32
881.095	34
881.145	36
881.196	40
881.246	38
881.297	34
881.347	28
881.398	38
881.448	28
881.499	30
881.549	34
881.6	36
881.65	32
881.701	28
881.751	38
881.802	40
881.852	38
881.902	42
881.953	48
882.003	38
882.054	38
882.104	32
882.155	38
882.205	36
882.256	32
882.306	38
882.357	36
882.407	36
882.458	36
882.508	30
882.559	38
882.609	42
882.659	28
882.71	38
882.76	38
882.811	34
882.861	38
882.912	24
882.962	42
883.013	46
883.063	34
883.114	34
883.164	38
883.214	38
883.265	38
883.315	34
883.366	40
883.416	38
883.467	36
883.517	34
883.568	38
883.618	44
883.669	30
883.719	40
883.769	42
883.82	48
883.87	38
883.921	30
883.971	30
884.022	34
884.072	36
884.123	36
884.173	34
884.223	40
884.274	38
884.324	26
884.375	26
884.425	40
884.476	34
884.526	32
884.577	40
884.627	50
884.677	38
884.728	30
884.778	44
884.829	38
884.879	48
884.93	32
884.98	36
885.03	28
885.081	38
885.131	32
885.182	40
885.232	28
885.283	34
885.333	36
885.383	38
885.434	50
885.484	40
885.535	40
885.585	32
885.635	32
885.686	42
885.736	30
885.787	38
885.837	44
885.888	40
885.938	34
885.988	28
886.039	36
886.089	30
886.14	32
886.19	36
886.241	40
886.291	32
886.341	32
886.392	34
886.442	40
886.493	42
886.543	44
886.593	26
886.644	36
886.694	34
886.745	38
886.795	34
886.845	32
886.896	32
886.946	34
886.997	30
887.047	40
887.097	34
887.148	28
887.198	38
887.249	38
887.299	36
887.349	32
887.4	24
887.45	44
887.501	30
887.551	30
887.602	30
887.652	42
887.702	44
887.753	36
887.803	32
887.853	42
887.904	40
887.954	30
888.005	38
888.055	38
888.105	36
888.156	34
888.206	34
888.257	36
888.307	30
888.357	36
888.408	28
888.458	38
888.509	38
888.559	36
888.609	36
888.66	30
888.71	28
888.76	36
888.811	28
888.861	36
888.912	40
888.962	34
889.012	26
889.063	32
889.113	36
889.163	38
889.214	26
889.264	30
889.315	38
889.365	32
889.415	34
889.466	26
889.516	36
889.566	40
889.617	30
889.667	32
889.718	40
889.768	38
889.818	34
889.869	28
889.919	38
889.969	44
890.02	28
890.07	32
890.12	42
890.171	30
890.221	26
890.272	32
890.322	42
890.372	38
890.423	30
890.473	36
890.523	32
890.574	28
890.624	30
890.674	30
890.725	32
890.775	32
890.826	32
890.876	28
890.926	40
890.977	38
891.027	28
891.077	38
891.128	38
891.178	42
891.228	30
891.279	32
891.329	36
891.379	38
891.43	36
891.48	24
891.53	36
891.581	32
891.631	30
891.681	32
891.732	28
891.782	34
891.832	42
891.883	30
891.933	38
891.983	34
892.034	28
892.084	32
892.134	28
892.185	32
892.235	34
892.286	30
892.336	38
892.386	32
892.437	36
892.487	34
892.537	40
892.587	32
892.638	30
892.688	32
892.738	30
892.789	32
892.839	28
892.889	30
892.94	32
892.99	30
893.04	40
893.091	22
893.141	32
893.191	32
893.242	32
893.292	26
893.342	24
893.393	34
893.443	36
893.493	32
893.544	30
893.594	40
893.644	26
893.695	32
893.745	28
893.795	38
893.846	32
893.896	26
893.946	28
893.996	34
894.047	42
894.097	28
894.147	26
894.198	30
894.248	36
894.298	32
894.349	26
894.399	36
894.449	36
894.5	28
894.55	24
894.6	24
894.65	42
894.701	34
894.751	24
894.801	42
894.852	32
894.902	26
894.952	32
895.003	30
895.053	36
895.103	32
895.153	28
895.204	34
895.254	34
895.304	32
895.355	26
895.405	32
895.455	32
895.505	38
895.556	28
895.606	34
895.656	32
895.707	34
895.757	22
895.807	30
895.858	44
895.908	30
895.958	36
896.008	30
896.059	34
896.109	32
896.159	26
896.21	34
896.26	32
896.31	34
896.36	34
896.411	26
896.461	34
896.511	40
896.561	26
896.612	24
896.662	40
896.712	28
896.763	28
896.813	28
896.863	24
896.913	34
896.964	26
897.014	24
897.064	28
897.115	30
897.165	28
897.215	30
897.265	32
897.316	34
897.366	32
897.416	28
897.466	30
897.517	26
897.567	34
897.617	30
897.667	36
897.718	36
897.768	28
897.818	24
897.868	26
897.919	28
897.969	26
898.019	28
898.069	30
898.12	32
898.17	32
898.22	30
898.27	36
898.321	30
898.371	18
898.421	28
898.471	34
898.522	32
898.572	32
898.622	26
898.672	40
898.723	24
898.773	34
898.823	24
898.873	30
898.924	36
898.974	30
899.024	16
899.074	34
899.125	35
899.175	36
899.225	28
899.275	34
899.326	36
899.376	28
899.426	28
899.476	32
899.527	34
899.577	34
899.627	24
899.677	30
899.728	32
899.778	32
899.828	28
899.878	32
899.928	36
899.979	26
