#Acq. time (s)=	3
#Accumulations=	2
#Range (nm)=	520...900
#Windows=	8
#Auto scanning=	Off
#Autofocus=	Off
#AutoExposure=	Off
#Spike filter=	Multiple accum.
#Delay time (s)=	0
#Binning=	1
#Readout mode=	Signal
#DeNoise=	Off
#ICS correction=	Off
#Dark correction=	Off
#Inst. Process=	Off
#Detector temperature (°C)=	-59.98
#Instrument=	LabRAM HR Evol
#Detector=	Syncerity OE
#Objective=	x50_VIS
#Grating=	600 (500nm)
#ND Filter=	10%
#Laser=	514nm_Edge
#Hole=	199.981
#Range=	Auto
#StageXY=	Marzhauser
#StageZ=	Marzhauser
#X (µm)=	0
#Y (µm)=	0
#Z (µm)=	0
#Full time(mm:ss)=	1:32
#Project=	
#Sample=	
#Site=	
#Title=	M5_270224
#Remark=	
#Date=	06.03.2024 10:19
#Acquired=	06.03.2024 10:19:02
520.044	24
520.097	28
520.149	20
520.201	26
520.254	30
520.306	28
520.359	28
520.411	16
520.464	28
520.516	26
520.569	26
520.621	24
520.674	28
520.726	28
520.778	36
520.831	26
520.883	26
520.936	28
520.988	28
521.041	26
521.093	26
521.146	32
521.198	24
521.25	16
521.303	30
521.355	28
521.408	28
521.46	22
521.513	26
521.565	28
521.617	26
521.67	26
521.722	28
521.775	28
521.827	28
521.88	18
521.932	24
521.984	28
522.037	26
522.089	24
522.142	22
522.194	22
522.247	28
522.299	18
522.352	28
522.404	30
522.456	22
522.509	22
522.561	30
522.614	36
522.666	28
522.719	30
522.771	26
522.823	32
522.876	26
522.928	18
522.981	30
523.033	28
523.086	30
523.138	22
523.19	16
523.243	28
523.295	30
523.348	24
523.4	30
523.453	26
523.505	34
523.557	22
523.61	18
523.662	26
523.715	30
523.767	26
523.82	22
523.872	30
523.924	30
523.977	26
524.029	28
524.082	32
524.134	30
524.186	24
524.239	22
524.291	30
524.344	30
524.396	24
524.449	16
524.501	24
524.553	26
524.606	24
524.658	16
524.711	28
524.763	24
524.815	34
524.868	24
524.92	30
524.973	34
525.025	26
525.078	24
525.13	28
525.182	30
525.235	30
525.287	22
525.34	34
525.392	32
525.444	30
525.497	24
525.549	22
525.602	32
525.654	28
525.706	22
525.759	30
525.811	30
525.864	34
525.916	22
525.969	24
526.021	22
526.073	30
526.126	20
526.178	22
526.231	24
526.283	26
526.335	24
526.388	28
526.44	24
526.493	26
526.545	22
526.597	28
526.65	38
526.702	32
526.755	28
526.807	20
526.859	24
526.912	28
526.964	22
527.017	24
527.069	34
527.121	24
527.174	28
527.226	30
527.279	26
527.331	26
527.383	18
527.436	24
527.488	38
527.54	30
527.593	34
527.645	26
527.698	30
527.75	30
527.802	24
527.855	26
527.907	28
527.96	32
528.012	26
528.064	20
528.117	32
528.169	30
528.222	26
528.274	20
528.326	32
528.379	30
528.431	20
528.484	16
528.536	32
528.588	28
528.641	30
528.693	24
528.745	32
528.798	28
528.85	24
528.903	30
528.955	30
529.007	32
529.06	34
529.112	16
529.164	26
529.217	24
529.269	20
529.322	32
529.374	24
529.426	32
529.479	30
529.531	26
529.584	26
529.636	26
529.688	32
529.741	26
529.793	24
529.845	36
529.898	32
529.95	28
530.003	28
530.055	36
530.107	30
530.16	16
530.212	28
530.264	30
530.317	34
530.369	28
530.422	20
530.474	34
530.526	32
530.579	28
530.631	28
530.683	30
530.736	28
530.788	20
530.841	26
530.893	34
530.945	34
530.998	26
531.05	24
531.102	34
531.155	26
531.207	24
531.259	24
531.312	24
531.364	30
531.417	36
531.469	20
531.521	36
531.574	26
531.626	26
531.678	24
531.731	26
531.783	34
531.835	32
531.888	30
531.94	38
531.992	34
532.045	30
532.097	28
532.15	34
532.202	28
532.254	26
532.307	24
532.359	34
532.411	36
532.464	30
532.516	24
532.568	28
532.621	32
532.673	30
532.726	22
532.778	26
532.83	30
532.883	36
532.935	24
532.987	30
533.04	32
533.092	28
533.144	28
533.197	30
533.249	30
533.301	30
533.354	26
533.406	34
533.458	34
533.511	22
533.563	28
533.615	34
533.668	28
533.72	24
533.773	26
533.825	18
533.877	32
533.93	28
533.982	22
534.034	26
534.087	30
534.139	32
534.191	20
534.244	32
534.296	44
534.348	28
534.401	32
534.453	32
534.505	32
534.558	36
534.61	32
534.662	30
534.715	44
534.767	34
534.819	28
534.872	28
534.924	34
534.976	36
535.029	28
535.081	28
535.133	42
535.186	38
535.238	30
535.29	26
535.343	36
535.395	36
535.447	36
535.5	30
535.552	32
535.604	38
535.657	40
535.709	34
535.761	30
535.814	36
535.866	30
535.918	28
535.971	32
536.023	42
536.075	40
536.128	28
536.18	34
536.232	32
536.285	36
536.337	32
536.389	36
536.442	32
536.494	32
536.546	32
536.599	28
536.651	36
536.703	32
536.755	26
536.808	36
536.86	28
536.912	40
536.965	30
537.017	40
537.069	30
537.122	36
537.174	24
537.226	36
537.279	32
537.331	34
537.383	34
537.436	30
537.488	30
537.54	26
537.593	28
537.645	34
537.697	38
537.75	36
537.802	32
537.854	28
537.906	40
537.959	30
538.011	26
538.063	32
538.116	28
538.168	32
538.22	32
538.273	28
538.325	40
538.377	32
538.43	30
538.482	26
538.534	30
538.586	30
538.639	28
538.691	36
538.743	28
538.796	34
538.848	34
538.9	24
538.953	30
539.005	24
539.057	24
539.109	26
539.162	34
539.214	36
539.266	32
539.319	30
539.371	34
539.423	34
539.476	28
539.528	32
539.58	36
539.633	34
539.685	26
539.737	26
539.789	40
539.842	22
539.894	26
539.946	32
539.999	32
540.051	32
540.103	30
540.155	24
540.208	28
540.26	36
540.312	30
540.365	30
540.417	36
540.469	34
540.521	34
540.574	28
540.626	36
540.678	34
540.731	32
540.783	30
540.835	38
540.888	36
540.94	30
540.992	28
541.044	28
541.097	36
541.149	32
541.201	22
541.254	26
541.306	36
541.358	34
541.41	28
541.463	28
541.515	36
541.567	36
541.62	24
541.672	30
541.724	36
541.776	36
541.829	28
541.881	30
541.933	38
541.985	30
542.038	30
542.09	34
542.142	34
542.195	30
542.247	30
542.299	28
542.351	38
542.404	30
542.456	24
542.508	14
542.56	36
542.613	34
542.665	36
542.717	30
542.77	34
542.822	30
542.874	26
542.926	32
542.979	34
543.031	32
543.083	30
543.135	26
543.188	38
543.24	36
543.292	36
543.344	26
543.397	32
543.449	32
543.501	34
543.554	34
543.606	38
543.658	28
543.71	30
543.763	34
543.815	38
543.867	36
543.919	30
543.972	26
544.024	40
544.076	32
544.128	38
544.181	24
544.233	34
544.285	30
544.337	36
544.39	26
544.442	42
544.494	40
544.547	38
544.599	28
544.651	34
544.703	34
544.755	30
544.808	36
544.86	34
544.912	28
544.965	38
545.017	32
545.069	32
545.121	38
545.174	36
545.226	30
545.278	34
545.33	28
545.383	36
545.435	36
545.487	32
545.539	34
545.591	34
545.644	32
545.696	28
545.748	38
545.8	44
545.853	36
545.905	38
545.957	44
546.009	36
546.062	24
546.114	36
546.166	32
546.218	40
546.271	34
546.323	36
546.375	40
546.427	34
546.48	36
546.532	32
546.584	48
546.636	40
546.689	42
546.741	34
546.793	42
546.845	42
546.898	38
546.95	32
547.002	42
547.054	46
547.106	20
547.159	42
547.211	40
547.263	42
547.315	32
547.368	38
547.42	42
547.472	46
547.524	32
547.577	32
547.629	42
547.681	48
547.733	34
547.785	34
547.838	42
547.89	42
547.942	32
547.994	40
548.047	40
548.099	38
548.151	36
548.203	32
548.255	42
548.308	40
548.36	36
548.412	38
548.464	52
548.517	34
548.569	32
548.621	38
548.673	40
548.725	46
548.778	34
548.83	28
548.882	44
548.934	42
548.987	38
549.039	38
549.091	42
549.143	48
549.195	50
549.248	32
549.3	44
549.352	44
549.404	46
549.456	32
549.509	36
549.561	46
549.613	42
549.665	36
549.718	36
549.77	54
549.822	42
549.874	34
549.926	42
549.979	38
550.031	52
550.083	38
550.135	44
550.187	46
550.24	44
550.292	40
550.344	48
550.396	50
550.448	40
550.501	44
550.553	36
550.605	52
550.657	60
550.709	42
550.762	46
550.814	54
550.866	58
550.918	50
550.97	50
551.023	52
551.075	50
551.127	54
551.179	50
551.231	56
551.284	66
551.336	66
551.388	52
551.44	66
551.492	62
551.545	60
551.597	66
551.649	78
551.701	84
551.753	74
551.806	70
551.858	76
551.91	84
551.962	88
552.014	106
552.067	114
552.119	122
552.171	148
552.223	164
552.275	220
552.327	280
552.38	446
552.432	892
552.484	1868
552.536	3364
552.588	5792
552.641	10672
552.693	16340
552.745	11042
552.797	4918
552.849	1924
552.901	720
552.954	414
553.006	296
553.058	208
553.11	180
553.162	144
553.215	120
553.267	102
553.319	92
553.371	94
553.423	80
553.475	78
553.528	76
553.58	70
553.632	76
553.684	66
553.736	70
553.788	64
553.841	62
553.893	54
553.945	58
553.997	60
554.049	60
554.102	58
554.154	50
554.206	56
554.258	48
554.31	48
554.362	52
554.414	48
554.467	56
554.519	56
554.571	54
554.623	48
554.675	48
554.727	48
554.78	36
554.832	50
554.884	52
554.936	36
554.988	38
555.04	60
555.093	42
555.145	48
555.197	48
555.249	50
555.301	54
555.353	52
555.406	48
555.458	46
555.51	54
555.562	44
555.614	44
555.666	54
555.719	54
555.771	54
555.823	40
555.875	50
555.927	48
555.979	46
556.031	46
556.084	54
556.136	54
556.188	52
556.24	50
556.292	48
556.344	52
556.396	46
556.449	42
556.501	42
556.553	44
556.605	58
556.657	46
556.709	52
556.762	48
556.814	48
556.866	44
556.918	48
556.97	56
557.022	46
557.074	48
557.127	54
557.179	52
557.231	56
557.283	50
557.335	44
557.387	50
557.439	46
557.492	50
557.544	48
557.596	40
557.648	52
557.7	34
557.752	40
557.804	50
557.856	50
557.909	40
557.961	50
558.013	52
558.065	50
558.117	48
558.169	46
558.221	58
558.273	48
558.326	44
558.378	54
558.43	42
558.482	52
558.534	46
558.586	40
558.638	46
558.691	42
558.743	44
558.795	54
558.847	54
558.899	52
558.951	48
559.003	46
559.055	50
559.108	60
559.16	44
559.212	48
559.264	56
559.316	48
559.368	48
559.42	54
559.472	62
559.525	46
559.577	44
559.629	48
559.681	60
559.733	56
559.785	56
559.837	42
559.889	56
559.941	52
559.994	50
560.046	44
560.098	56
560.15	56
560.202	46
560.254	54
560.306	48
560.358	48
560.41	54
560.463	50
560.515	58
560.567	54
560.619	62
560.671	50
560.723	62
560.775	54
560.827	50
560.879	42
560.932	46
560.984	56
561.036	58
561.088	60
561.14	54
561.192	54
561.244	56
561.296	54
561.348	44
561.4	56
561.453	54
561.505	50
561.557	56
561.609	56
561.661	58
561.713	50
561.765	50
561.817	64
561.869	54
561.921	54
561.974	46
562.026	52
562.078	52
562.13	58
562.182	46
562.234	46
562.286	62
562.338	54
562.39	58
562.442	70
562.494	60
562.547	54
562.599	52
562.651	52
562.703	48
562.755	50
562.807	58
562.859	54
562.911	54
562.963	56
563.015	56
563.067	62
563.12	58
563.172	52
563.224	52
563.276	68
563.328	48
563.38	56
563.432	62
563.484	52
563.536	52
563.588	52
563.64	52
563.692	66
563.744	60
563.797	62
563.849	58
563.901	64
563.953	58
564.005	52
564.057	56
564.109	62
564.161	68
564.213	66
564.265	54
564.317	62
564.369	66
564.421	52
564.474	56
564.526	62
564.578	60
564.63	66
564.682	58
564.734	68
564.786	58
564.838	68
564.89	66
564.942	64
564.994	62
565.046	70
565.098	56
565.15	70
565.202	60
565.255	68
565.307	62
565.359	56
565.411	60
565.463	60
565.515	72
565.567	58
565.619	70
565.671	58
565.723	46
565.775	66
565.827	68
565.879	58
565.931	58
565.983	68
566.035	66
566.087	56
566.139	64
566.192	62
566.244	60
566.296	66
566.348	62
566.4	58
566.452	64
566.504	64
566.556	52
566.608	56
566.66	56
566.712	72
566.764	64
566.816	60
566.868	72
566.92	64
566.972	52
567.024	62
567.076	66
567.128	66
567.18	68
567.232	52
567.285	68
567.337	64
567.389	68
567.441	66
567.493	74
567.545	66
567.597	64
567.649	64
567.701	72
567.753	66
567.805	70
567.857	70
567.909	74
567.961	64
568.013	64
568.065	70
568.117	79.92
568.169	69.9742
568.221	64.0405
568.273	58.3282
568.325	68.1758
568.377	70.0571
568.429	67.8591
568.481	70.0158
568.533	69.6461
568.585	70.959
568.637	63.7939
568.69	62.1029
568.742	77.1276
568.794	78.9124
568.846	72.0108
568.898	70.7388
568.95	68.7309
569.002	76.3698
569.054	65.764
569.106	66.1675
569.158	71.2951
569.21	72.6357
569.262	62.5593
569.314	67.5659
569.366	73.1952
569.418	67.2022
569.47	70.3108
569.522	67.1464
569.574	78.2021
569.626	74.0959
569.678	77.054
569.73	71.2581
569.782	75.2285
569.834	76.5385
569.886	79.6656
569.938	75.74
569.99	74.2193
570.042	76.6717
570.094	73.5232
570.146	80.9202
570.198	75.7686
570.25	73.5656
570.302	74.2402
570.354	75.687
570.406	74.7936
570.458	78.54
570.51	76.6027
570.562	75.6259
570.614	84.744
570.666	80.7038
570.718	80.6561
570.77	78.3357
570.822	78.9868
570.874	81.1
570.926	74.275
570.978	85.1355
571.03	82.2427
571.082	90.7331
571.134	82.8362
571.186	81.19
571.238	81.9055
571.29	87.8881
571.342	84.755
571.394	79.8087
571.446	82.4267
571.498	92.4565
571.55	84.6869
571.602	86.1
571.654	85.5254
571.706	89.9237
571.758	89.2696
571.81	90.8055
571.862	88.0807
571.914	88.0902
571.966	94.4758
572.018	91.3477
572.07	98.0639
572.122	97.9682
572.174	91.0758
572.226	99.9274
572.278	96.1416
572.33	97.1364
572.382	97.4
572.434	96.316
572.486	98.6292
572.538	104.119
572.59	93.6105
572.642	97.1995
572.694	95.5781
572.746	101.26
572.798	101.236
572.85	102.394
572.902	105.55
572.954	105.859
573.006	105.619
573.058	111.486
573.11	106.465
573.162	109.193
573.214	117.88
573.266	115.559
573.312	98
573.364	108
573.416	114
573.469	120
573.521	114
573.573	126
573.625	118
573.677	108
573.73	122
573.782	124
573.834	138
573.886	124
573.938	132
573.991	134
574.043	138
574.095	122
574.147	134
574.199	140
574.252	130
574.304	146
574.356	142
574.408	146
574.46	142
574.513	144
574.565	150
574.617	150
574.669	146
574.721	148
574.774	154
574.826	172
574.878	162
574.93	150
574.982	158
575.035	164
575.087	182
575.139	168
575.191	172
575.243	190
575.296	184
575.348	176
575.4	174
575.452	174
575.504	190
575.556	178
575.609	190
575.661	184
575.713	188
575.765	176
575.817	178
575.87	190
575.922	182
575.974	176
576.026	184
576.078	182
576.131	188
576.183	184
576.235	180
576.287	174
576.339	168
576.391	166
576.444	174
576.496	174
576.548	172
576.6	172
576.652	164
576.705	164
576.757	164
576.809	166
576.861	158
576.913	146
576.965	168
577.018	166
577.07	158
577.122	148
577.174	158
577.226	154
577.279	164
577.331	150
577.383	154
577.435	138
577.487	152
577.539	140
577.592	140
577.644	142
577.696	142
577.748	144
577.8	130
577.852	126
577.905	124
577.957	148
578.009	140
578.061	142
578.113	136
578.165	124
578.218	134
578.27	142
578.322	140
578.374	122
578.426	128
578.478	134
578.531	126
578.583	132
578.635	134
578.687	132
578.739	138
578.791	126
578.844	134
578.896	124
578.948	126
579	140
579.052	124
579.104	128
579.157	138
579.209	128
579.261	140
579.313	130
579.365	126
579.417	138
579.47	128
579.522	142
579.574	132
579.626	128
579.678	130
579.73	126
579.782	130
579.835	142
579.887	136
579.939	136
579.991	140
580.043	134
580.095	116
580.148	144
580.2	124
580.252	134
580.304	134
580.356	150
580.408	114
580.46	138
580.513	122
580.565	148
580.617	140
580.669	138
580.721	136
580.773	138
580.826	134
580.878	132
580.93	120
580.982	134
581.034	124
581.086	148
581.138	130
581.191	140
581.243	138
581.295	144
581.347	140
581.399	142
581.451	138
581.503	138
581.556	140
581.608	144
581.66	142
581.712	126
581.764	138
581.816	134
581.868	136
581.92	134
581.973	138
582.025	138
582.077	136
582.129	138
582.181	152
582.233	138
582.285	148
582.338	138
582.39	138
582.442	160
582.494	146
582.546	132
582.598	150
582.65	156
582.703	134
582.755	132
582.807	156
582.859	148
582.911	144
582.963	144
583.015	148
583.067	146
583.12	164
583.172	154
583.224	154
583.276	154
583.328	166
583.38	154
583.432	150
583.484	164
583.537	154
583.589	154
583.641	158
583.693	164
583.745	158
583.797	138
583.849	170
583.901	158
583.953	172
584.006	168
584.058	152
584.11	162
584.162	154
584.214	148
584.266	184
584.318	168
584.37	174
584.423	166
584.475	172
584.527	166
584.579	176
584.631	166
584.683	172
584.735	174
584.787	176
584.839	178
584.892	178
584.944	178
584.996	178
585.048	162
585.1	180
585.152	182
585.204	180
585.256	186
585.308	180
585.361	176
585.413	176
585.465	178
585.517	184
585.569	182
585.621	188
585.673	186
585.725	188
585.777	176
585.83	192
585.882	168
585.934	172
585.986	192
586.038	190
586.09	204
586.142	190
586.194	192
586.246	192
586.298	192
586.351	186
586.403	180
586.455	188
586.507	192
586.559	194
586.611	192
586.663	186
586.715	190
586.767	208
586.819	200
586.872	188
586.924	188
586.976	176
587.028	170
587.08	186
587.132	190
587.184	206
587.236	194
587.288	188
587.34	214
587.392	204
587.445	202
587.497	182
587.549	208
587.601	178
587.653	200
587.705	190
587.757	190
587.809	198
587.861	204
587.913	198
587.965	204
588.018	214
588.07	190
588.122	200
588.174	200
588.226	198
588.278	224
588.33	206
588.382	196
588.434	206
588.486	194
588.538	214
588.59	196
588.642	208
588.695	222
588.747	212
588.799	220
588.851	218
588.903	216
588.955	212
589.007	226
589.059	226
589.111	218
589.163	228
589.215	220
589.267	238
589.319	214
589.372	236
589.424	228
589.476	218
589.528	228
589.58	220
589.632	240
589.684	222
589.736	236
589.788	242
589.84	224
589.892	216
589.944	214
589.996	224
590.048	222
590.101	224
590.153	222
590.205	224
590.257	220
590.309	214
590.361	226
590.413	208
590.465	220
590.517	224
590.569	208
590.621	220
590.673	218
590.725	212
590.777	212
590.829	216
590.881	214
590.933	222
590.986	218
591.038	214
591.09	206
591.142	206
591.194	212
591.246	212
591.298	208
591.35	220
591.402	206
591.454	196
591.506	202
591.558	212
591.61	206
591.662	210
591.714	204
591.766	196
591.818	196
591.87	196
591.923	194
591.975	200
592.027	198
592.079	200
592.131	186
592.183	186
592.235	176
592.287	192
592.339	196
592.391	202
592.443	196
592.495	198
592.547	196
592.599	196
592.651	198
592.703	204
592.755	198
592.807	186
592.859	176
592.911	188
592.963	192
593.015	198
593.068	184
593.12	186
593.172	192
593.224	196
593.276	190
593.328	200
593.38	174
593.432	188
593.484	186
593.536	200
593.588	178
593.64	192
593.692	200
593.744	196
593.796	174
593.848	176
593.9	196
593.952	186
594.004	182
594.056	174
594.108	196
594.16	186
594.212	192
594.264	200
594.316	194
594.368	188
594.42	194
594.472	190
594.524	184
594.576	190
594.628	188
594.68	204
594.732	188
594.784	188
594.837	176
594.889	188
594.941	210
594.993	196
595.045	182
595.097	194
595.149	200
595.201	196
595.253	194
595.305	202
595.357	202
595.409	182
595.461	202
595.513	182
595.565	206
595.617	188
595.669	192
595.721	198
595.773	192
595.825	192
595.877	202
595.929	194
595.981	206
596.033	194
596.085	212
596.137	198
596.189	208
596.241	198
596.293	204
596.345	204
596.397	200
596.449	210
596.501	202
596.553	208
596.605	218
596.657	202
596.709	228
596.761	214
596.813	206
596.865	218
596.917	198
596.969	188
597.021	200
597.073	194
597.125	188
597.177	182
597.229	212
597.281	182
597.333	182
597.385	196
597.437	190
597.489	194
597.541	188
597.593	182
597.645	192
597.697	194
597.749	190
597.801	196
597.853	200
597.905	180
597.957	170
598.009	212
598.061	196
598.113	188
598.165	196
598.217	182
598.269	204
598.321	188
598.373	194
598.425	184
598.477	200
598.529	210
598.581	184
598.633	188
598.685	198
598.737	194
598.789	190
598.841	200
598.893	198
598.945	192
598.997	176
599.049	198
599.101	190
599.153	188
599.205	190
599.257	184
599.309	202
599.361	190
599.413	198
599.465	196
599.517	184
599.569	210
599.62	188
599.672	198
599.724	186
599.776	178
599.828	190
599.88	178
599.932	198
599.984	190
600.036	180
600.088	194
600.14	176
600.192	192
600.244	176
600.296	198
600.348	180
600.4	184
600.452	188
600.504	192
600.556	196
600.608	192
600.66	188
600.712	194
600.764	200
600.816	192
600.868	198
600.92	188
600.972	190
601.024	204
601.076	190
601.128	194
601.18	200
601.232	182
601.284	188
601.335	184
601.387	186
601.439	190
601.491	206
601.543	192
601.595	194
601.647	204
601.699	190
601.751	196
601.803	206
601.855	190
601.907	202
601.959	188
602.011	186
602.063	176
602.115	192
602.167	196
602.219	200
602.271	198
602.323	192
602.375	194
602.427	198
602.478	202
602.53	208
602.582	198
602.634	214
602.686	202
602.738	196
602.79	214
602.842	190
602.894	198
602.946	198
602.998	190
603.05	190
603.102	200
603.154	194
603.206	198
603.258	190
603.31	202
603.362	202
603.413	182
603.465	186
603.517	200
603.569	210
603.621	206
603.673	202
603.725	196
603.777	182
603.829	184
603.881	212
603.933	182
603.985	200
604.037	198
604.089	202
604.141	202
604.193	208
604.244	196
604.296	196
604.348	178
604.4	202
604.452	210
604.504	200
604.556	192
604.608	210
604.66	206
604.712	204
604.764	182
604.816	208
604.868	216
604.92	216
604.971	202
605.023	204
605.075	214
605.127	220
605.179	202
605.231	202
605.283	210
605.335	198
605.387	196
605.439	200
605.491	202
605.543	202
605.594	190
605.646	206
605.698	204
605.75	204
605.802	192
605.854	212
605.906	194
605.958	204
606.01	200
606.062	202
606.114	190
606.166	198
606.217	192
606.269	202
606.321	198
606.373	192
606.425	184
606.477	204
606.529	206
606.581	202
606.633	198
606.685	214
606.737	200
606.789	204
606.84	212
606.892	198
606.944	204
606.996	200
607.048	214
607.1	200
607.152	216
607.204	196
607.256	200
607.308	200
607.359	192
607.411	196
607.463	210
607.515	192
607.567	212
607.619	216
607.671	204
607.723	192
607.775	214
607.827	192
607.878	206
607.93	208
607.982	216
608.034	212
608.086	220
608.138	212
608.19	220
608.242	182
608.294	210
608.345	196
608.397	204
608.449	212
608.501	192
608.553	204
608.605	212
608.657	206
608.709	218
608.761	204
608.812	216
608.864	216
608.916	214
608.968	194
609.02	202
609.072	198
609.124	204
609.176	212
609.228	212
609.279	210
609.331	208
609.383	222
609.435	226
609.487	208
609.539	214
609.591	208
609.643	218
609.694	216
609.746	208
609.798	224
609.85	220
609.902	202
609.954	220
610.006	208
610.058	226
610.109	208
610.161	216
610.213	212
610.265	206
610.317	214
610.369	218
610.421	222
610.473	210
610.524	232
610.576	206
610.628	214
610.68	218
610.732	206
610.784	218
610.836	210
610.887	226
610.939	210
610.991	222
611.043	222
611.095	226
611.147	228
611.199	218
611.25	210
611.302	204
611.354	230
611.406	220
611.458	224
611.51	208
611.562	228
611.614	200
611.665	218
611.717	216
611.769	214
611.821	226
611.873	214
611.925	232
611.977	216
612.028	208
612.08	220
612.132	212
612.184	230
612.236	206
612.288	224
612.339	220
612.391	236
612.443	228
612.495	230
612.547	228
612.599	226
612.651	220
612.702	240
612.754	222
612.806	228
612.858	220
612.91	224
612.962	216
613.013	226
613.065	226
613.117	234
613.169	218
613.221	234
613.273	226
613.325	246
613.376	232
613.428	218
613.48	230
613.532	224
613.584	220
613.635	230
613.687	230
613.739	236
613.791	216
613.843	234
613.895	232
613.947	212
613.998	230
614.05	224
614.102	234
614.154	214
614.206	226
614.258	232
614.309	232
614.361	240
614.413	222
614.465	238
614.517	234
614.568	238
614.62	232
614.672	228
614.724	234
614.776	244
614.828	242
614.879	230
614.931	234
614.983	248
615.035	234
615.087	242
615.139	238
615.19	242
615.242	250
615.294	246
615.346	240
615.398	222
615.449	244
615.501	234
615.553	264
615.605	228
615.657	248
615.709	254
615.76	248
615.812	238
615.864	246
615.916	246
615.968	250
616.019	243.912
616.071	251.624
616.123	253.516
616.175	262
616.227	237.824
616.278	243.436
616.33	244.8
616.382	240.509
616.434	248
616.486	242.346
616.537	223.058
616.589	259.52
616.641	236.49
616.693	246.986
616.745	242.264
616.797	275.685
616.848	257.563
616.9	249.311
616.952	245.275
617.004	261.505
617.056	248.781
617.107	251.784
617.159	258.173
617.211	256.432
617.263	250.402
617.315	250.107
617.366	241.517
617.418	264.075
617.47	251.909
617.522	263.707
617.573	254.678
617.625	250.901
617.677	251.046
617.729	256.716
617.781	256.486
617.832	254.169
617.884	257.396
617.936	244.73
617.988	251.525
618.04	252.144
618.091	262.136
618.143	257.928
618.195	255.633
618.247	248.794
618.299	253.429
618.35	259.578
618.402	260.063
618.454	253.426
618.506	254.018
618.557	244.294
618.609	251.375
618.661	257.991
618.713	270.842
618.765	264.647
618.816	257.593
618.868	267.466
618.92	254.118
618.972	253.913
619.023	264.569
619.075	261.24
619.127	268.951
619.179	265.378
619.231	266.377
619.282	265.811
619.334	257.87
619.386	256.211
619.438	268.033
619.49	274.624
619.541	264.936
619.593	263.764
619.645	261.534
619.697	249.724
619.748	265.738
619.8	265.913
619.852	261.931
619.904	269.269
619.955	273.387
620.007	268.081
620.059	273.734
620.111	268.484
620.162	260.017
620.214	276.968
620.266	263.229
620.318	268.789
620.37	267.636
620.421	262.767
620.473	271.91
620.525	266.648
620.577	258.704
620.628	263.347
620.68	256.715
620.732	261.065
620.784	268.745
620.835	274.912
620.887	274.634
620.939	260.013
620.991	258.422
621.042	267.215
621.094	269.804
621.146	271.917
621.198	269.229
621.249	262.297
621.269	260
621.321	260
621.373	274
621.425	280
621.477	256
621.529	250
621.581	272
621.633	262
621.685	274
621.737	260
621.789	268
621.841	264
621.893	234
621.945	266
621.997	270
622.049	272
622.101	260
622.153	278
622.205	272
622.257	278
622.309	262
622.361	282
622.413	264
622.465	266
622.517	270
622.569	270
622.621	258
622.673	276
622.725	266
622.776	274
622.828	276
622.88	270
622.932	256
622.984	280
623.036	274
623.088	272
623.14	254
623.192	264
623.244	268
623.296	274
623.348	270
623.4	254
623.452	266
623.504	274
623.556	270
623.608	264
623.66	268
623.712	276
623.764	254
623.816	264
623.868	278
623.92	282
623.972	270
624.024	270
624.076	286
624.128	278
624.18	286
624.232	252
624.284	284
624.336	290
624.388	282
624.44	280
624.492	294
624.544	294
624.596	270
624.648	268
624.699	238
624.751	296
624.803	278
624.855	280
624.907	278
624.959	290
625.011	274
625.063	278
625.115	272
625.167	298
625.219	304
625.271	288
625.323	286
625.375	280
625.427	278
625.479	290
625.531	288
625.583	292
625.635	286
625.687	282
625.739	268
625.791	294
625.843	304
625.895	294
625.946	302
625.998	302
626.05	308
626.102	292
626.154	284
626.206	300
626.258	300
626.31	276
626.362	298
626.414	292
626.466	292
626.518	306
626.57	308
626.622	292
626.674	306
626.726	294
626.778	290
626.83	298
626.882	296
626.934	302
626.985	288
627.037	290
627.089	284
627.141	278
627.193	298
627.245	306
627.297	284
627.349	274
627.401	292
627.453	284
627.505	294
627.557	286
627.609	300
627.661	294
627.713	292
627.765	290
627.817	282
627.868	280
627.92	316
627.972	288
628.024	300
628.076	316
628.128	278
628.18	312
628.232	284
628.284	280
628.336	304
628.388	292
628.44	304
628.492	306
628.544	298
628.596	310
628.647	296
628.699	302
628.751	318
628.803	302
628.855	276
628.907	306
628.959	294
629.011	300
629.063	292
629.115	292
629.167	294
629.219	306
629.271	284
629.322	296
629.374	312
629.426	286
629.478	302
629.53	304
629.582	322
629.634	310
629.686	312
629.738	314
629.79	300
629.842	308
629.894	324
629.945	296
629.997	314
630.049	314
630.101	302
630.153	318
630.205	306
630.257	318
630.309	298
630.361	318
630.413	310
630.465	324
630.517	312
630.568	318
630.62	332
630.672	310
630.724	312
630.776	306
630.828	316
630.88	326
630.932	310
630.984	314
631.036	296
631.088	312
631.14	306
631.191	306
631.243	312
631.295	306
631.347	322
631.399	314
631.451	322
631.503	330
631.555	312
631.607	326
631.659	332
631.71	314
631.762	334
631.814	326
631.866	312
631.918	306
631.97	332
632.022	318
632.074	322
632.126	324
632.178	320
632.229	320
632.281	320
632.333	320
632.385	344
632.437	312
632.489	330
632.541	336
632.593	342
632.645	326
632.696	314
632.748	332
632.8	340
632.852	328
632.904	328
632.956	324
633.008	338
633.06	330
633.112	320
633.164	328
633.215	334
633.267	332
633.319	342
633.371	350
633.423	346
633.475	344
633.527	344
633.579	344
633.63	348
633.682	346
633.734	338
633.786	336
633.838	336
633.89	348
633.942	338
633.994	344
634.046	346
634.097	344
634.149	348
634.201	356
634.253	354
634.305	356
634.357	342
634.409	358
634.461	354
634.512	378
634.564	362
634.616	362
634.668	382
634.72	356
634.772	358
634.824	368
634.876	376
634.927	334
634.979	358
635.031	384
635.083	372
635.135	350
635.187	376
635.239	378
635.291	392
635.342	346
635.394	354
635.446	374
635.498	380
635.55	350
635.602	378
635.654	392
635.705	404
635.757	380
635.809	378
635.861	402
635.913	404
635.965	396
636.017	406
636.068	406
636.12	404
636.172	416
636.224	414
636.276	402
636.328	428
636.38	438
636.431	440
636.483	446
636.535	438
636.587	448
636.639	434
636.691	420
636.743	448
636.794	460
636.846	464
636.898	478
636.95	458
637.002	478
637.054	484
637.106	472
637.157	494
637.209	488
637.261	472
637.313	524
637.365	508
637.417	514
637.469	514
637.52	508
637.572	522
637.624	518
637.676	506
637.728	526
637.78	516
637.831	510
637.883	514
637.935	512
637.987	536
638.039	508
638.091	508
638.143	478
638.194	530
638.246	508
638.298	508
638.35	502
638.402	500
638.454	472
638.505	480
638.557	502
638.609	498
638.661	496
638.713	498
638.765	494
638.816	494
638.868	492
638.92	462
638.972	456
639.024	470
639.076	472
639.127	472
639.179	464
639.231	460
639.283	470
639.335	452
639.387	450
639.438	462
639.49	438
639.542	426
639.594	440
639.646	448
639.698	470
639.749	444
639.801	468
639.853	432
639.905	448
639.957	438
640.008	434
640.06	462
640.112	434
640.164	426
640.216	414
640.268	436
640.319	440
640.371	428
640.423	424
640.475	420
640.527	400
640.578	430
640.63	444
640.682	420
640.734	432
640.786	442
640.838	430
640.889	420
640.941	436
640.993	414
641.045	420
641.097	432
641.148	420
641.2	414
641.252	426
641.304	420
641.356	426
641.408	438
641.459	414
641.511	400
641.563	432
641.615	428
641.667	414
641.718	420
641.77	424
641.822	434
641.874	430
641.926	396
641.977	432
642.029	434
642.081	434
642.133	430
642.185	428
642.236	416
642.288	422
642.34	434
642.392	408
642.444	408
642.495	420
642.547	422
642.599	418
642.651	414
642.703	416
642.754	422
642.806	434
642.858	422
642.91	400
642.962	398
643.013	428
643.065	442
643.117	416
643.169	414
643.221	430
643.272	418
643.324	428
643.376	410
643.428	404
643.479	424
643.531	424
643.583	402
643.635	428
643.687	436
643.738	424
643.79	422
643.842	428
643.894	432
643.946	434
643.997	416
644.049	422
644.101	430
644.153	452
644.205	424
644.256	444
644.308	414
644.36	418
644.412	444
644.463	436
644.515	416
644.567	424
644.619	402
644.671	438
644.722	434
644.774	442
644.826	442
644.878	432
644.929	432
644.981	452
645.033	458
645.085	436
645.136	440
645.188	438
645.24	430
645.292	446
645.344	426
645.395	436
645.447	444
645.499	444
645.551	452
645.602	440
645.654	416
645.706	432
645.758	446
645.81	458
645.861	436
645.913	434
645.965	406
646.017	440
646.068	458
646.12	456
646.172	448
646.224	456
646.275	444
646.327	440
646.379	428
646.431	450
646.482	446
646.534	444
646.586	430
646.638	458
646.689	462
646.741	466
646.793	446
646.845	438
646.896	462
646.948	454
647	444
647.052	458
647.104	458
647.155	444
647.207	452
647.259	448
647.31	446
647.362	442
647.414	458
647.466	480
647.518	448
647.569	454
647.621	478
647.673	474
647.724	472
647.776	470
647.828	448
647.88	452
647.931	452
647.983	452
648.035	454
648.087	468
648.138	462
648.19	436
648.242	468
648.294	448
648.345	464
648.397	454
648.449	482
648.501	452
648.552	464
648.604	474
648.656	464
648.708	468
648.759	480
648.811	470
648.863	472
648.915	474
648.966	470
649.018	462
649.07	478
649.121	472
649.173	448
649.225	488
649.277	476
649.328	450
649.38	460
649.432	476
649.484	462
649.535	474
649.587	474
649.639	484
649.69	478
649.742	488
649.794	474
649.846	468
649.897	500
649.949	476
650.001	482
650.053	480
650.104	482
650.156	484
650.208	508
650.259	500
650.311	474
650.363	482
650.415	476
650.466	494
650.518	480
650.57	496
650.621	500
650.673	518
650.725	474
650.777	522
650.828	504
650.88	500
650.932	502
650.984	482
651.035	502
651.087	492
651.139	494
651.19	470
651.242	490
651.294	486
651.345	468
651.397	512
651.449	518
651.501	492
651.552	502
651.604	504
651.656	510
651.707	516
651.759	494
651.811	504
651.863	514
651.914	482
651.966	502
652.018	506
652.069	476
652.121	526
652.173	510
652.224	524
652.276	504
652.328	502
652.38	508
652.431	496
652.483	532
652.535	498
652.586	502
652.638	512
652.69	514
652.741	530
652.793	482
652.845	514
652.897	526
652.948	508
653	526
653.052	508
653.103	522
653.155	538
653.207	538
653.258	512
653.31	526
653.362	512
653.413	520
653.465	532
653.517	526
653.568	514
653.62	532
653.672	534
653.724	516
653.775	508
653.827	536
653.879	516
653.93	550
653.982	540
654.034	528
654.085	526
654.137	538
654.189	546
654.24	534
654.292	550
654.344	554
654.395	552
654.447	520
654.499	522
654.55	540
654.602	552
654.654	534
654.705	544
654.757	570
654.809	538
654.86	540
654.912	550
654.964	556
655.016	550
655.067	572
655.119	552
655.17	586
655.222	560
655.274	558
655.326	546
655.377	538
655.429	580
655.481	570
655.532	540
655.584	562
655.635	572
655.687	572
655.739	580
655.79	574
655.842	606
655.894	576
655.945	564
655.997	572
656.049	568
656.1	558
656.152	588
656.204	582
656.255	584
656.307	580
656.359	584
656.41	586
656.462	608
656.514	590
656.565	602
656.617	606
656.669	616
656.72	586
656.772	596
656.824	596
656.875	594
656.927	616
656.979	600
657.03	588
657.082	578
657.134	608
657.185	590
657.237	598
657.288	610
657.34	640
657.392	614
657.443	626
657.495	588
657.547	622
657.598	604
657.65	614
657.702	606
657.753	600
657.805	594
657.857	630
657.908	606
657.96	608
658.011	612
658.063	628
658.115	626
658.166	638
658.218	620
658.27	610
658.321	624
658.373	628
658.425	618
658.476	622
658.528	612
658.579	608
658.631	594
658.683	640
658.734	604
658.786	614
658.838	616
658.889	642
658.941	592
658.992	618
659.044	638
659.096	604
659.147	668
659.199	634
659.251	666
659.302	614
659.354	638
659.406	624
659.457	636
659.509	624
659.56	602
659.612	608
659.664	628
659.715	606
659.767	612
659.818	614
659.87	638
659.922	628
659.973	638
660.025	644
660.077	636
660.128	628
660.18	616
660.231	612
660.283	620
660.335	628
660.386	634
660.438	594
660.49	630
660.541	642
660.593	624
660.644	622
660.696	642
660.748	612
660.799	620
660.851	638
660.902	618
660.954	610
661.006	610
661.057	634
661.109	616
661.16	638
661.212	622
661.264	630
661.315	604
661.367	604
661.418	630
661.47	636
661.522	622
661.573	632
661.625	622
661.676	640
661.728	622
661.78	630
661.831	596
661.883	632
661.934	620
661.986	580
662.038	638
662.089	618
662.141	624
662.192	610
662.244	610
662.296	630
662.347	608
662.399	618
662.45	610
662.502	642
662.554	630
662.605	628
662.657	620
662.708	642
662.76	630
662.811	640
662.863	648
662.915	628
662.966	594
663.018	608
663.069	626
663.121	624
663.173	626
663.224	648
663.276	616
663.327	628
663.379	630
663.43	634
663.482	622
663.534	622
663.585	624
663.637	608
663.688	626
663.74	616.02
663.792	610.354
663.843	626.415
663.895	626.624
663.946	606.909
663.998	635.313
664.049	638.411
664.101	643.346
664.153	619.417
664.204	641.633
664.256	626.545
664.307	601.594
664.359	607.148
664.41	641.445
664.462	634.873
664.513	633.922
664.565	632.644
664.617	623.54
664.668	631.53
664.72	638.38
664.771	628.069
664.823	614.536
664.874	623.365
664.926	608.545
664.978	628.365
665.029	632.1
665.081	617.624
665.132	633.104
665.184	603.887
665.235	624.58
665.287	637.586
665.339	646.193
665.39	620.127
665.442	635.307
665.493	636.48
665.545	623.688
665.596	604.726
665.648	621.613
665.699	635.468
665.751	613.128
665.802	630.901
665.854	624.029
665.906	620.116
665.957	614.506
666.009	622.121
666.06	627.642
666.112	620.386
666.163	612.94
666.215	608.739
666.266	629.111
666.318	622.232
666.37	603.096
666.421	620.929
666.473	633.811
666.524	613.261
666.576	617.513
666.627	616.852
666.679	617.95
666.73	622.382
666.782	623.76
666.833	620.094
666.885	626.119
666.937	621.816
666.988	615.181
667.04	628.359
667.091	639.151
667.143	617.465
667.194	618.973
667.246	626.123
667.297	613.804
667.349	622.376
667.4	638.824
667.452	623.53
667.503	611.422
667.555	622.946
667.607	628.353
667.658	621.854
667.71	619.572
667.761	623.317
667.813	622.851
667.864	620.579
667.916	611.696
667.967	619.053
668.019	636.902
668.07	629.803
668.122	628.065
668.173	632.459
668.225	606.116
668.276	613.21
668.328	615.005
668.379	615.229
668.431	613.851
668.482	635.279
668.534	635.142
668.586	622.811
668.637	626.684
668.689	622.011
668.74	602.906
668.792	607.16
668.843	632.193
668.895	621.44
668.935	634
668.987	608
669.038	644
669.09	628
669.142	596
669.194	624
669.245	636
669.297	642
669.349	656
669.401	612
669.453	594
669.504	658
669.556	626
669.608	644
669.66	624
669.711	636
669.763	646
669.815	614
669.867	634
669.918	634
669.97	600
670.022	626
670.074	636
670.125	634
670.177	596
670.229	620
670.281	620
670.332	620
670.384	604
670.436	628
670.488	630
670.539	626
670.591	632
670.643	616
670.695	620
670.747	604
670.798	620
670.85	632
670.902	626
670.953	620
671.005	632
671.057	608
671.109	622
671.161	604
671.212	634
671.264	628
671.316	632
671.367	624
671.419	626
671.471	630
671.523	626
671.575	654
671.626	614
671.678	612
671.73	624
671.781	636
671.833	622
671.885	616
671.937	622
671.988	638
672.04	606
672.092	620
672.144	612
672.195	638
672.247	626
672.299	632
672.351	640
672.402	632
672.454	634
672.506	622
672.558	624
672.609	634
672.661	650
672.713	624
672.765	626
672.816	644
672.868	626
672.92	640
672.971	622
673.023	630
673.075	642
673.127	640
673.178	626
673.23	616
673.282	628
673.334	634
673.385	636
673.437	628
673.489	650
673.54	660
673.592	618
673.644	650
673.696	648
673.747	638
673.799	646
673.851	640
673.903	616
673.954	656
674.006	650
674.058	630
674.109	648
674.161	660
674.213	626
674.265	668
674.316	658
674.368	654
674.42	626
674.471	656
674.523	658
674.575	648
674.627	652
674.678	660
674.73	662
674.782	652
674.833	660
674.885	670
674.937	640
674.989	682
675.04	652
675.092	676
675.144	664
675.195	664
675.247	682
675.299	660
675.351	672
675.402	646
675.454	648
675.506	642
675.557	642
675.609	670
675.661	662
675.713	642
675.764	648
675.816	692
675.868	666
675.919	670
675.971	642
676.023	662
676.074	692
676.126	686
676.178	668
676.23	670
676.281	678
676.333	678
676.385	674
676.436	674
676.488	688
676.54	676
676.591	676
676.643	666
676.695	672
676.747	676
676.798	670
676.85	680
676.902	692
676.953	678
677.005	668
677.057	672
677.108	676
677.16	678
677.212	660
677.263	658
677.315	670
677.367	658
677.419	676
677.47	674
677.522	674
677.574	660
677.625	660
677.677	660
677.729	684
677.78	646
677.832	650
677.884	690
677.935	660
677.987	664
678.039	658
678.091	676
678.142	670
678.194	668
678.246	688
678.297	678
678.349	670
678.401	694
678.452	666
678.504	676
678.556	668
678.607	678
678.659	664
678.711	690
678.762	672
678.814	682
678.866	686
678.917	686
678.969	670
679.021	674
679.072	648
679.124	688
679.176	668
679.227	682
679.279	678
679.331	684
679.382	692
679.434	670
679.486	670
679.537	670
679.589	672
679.641	682
679.692	658
679.744	678
679.796	658
679.847	666
679.899	668
679.951	678
680.003	664
680.054	698
680.106	676
680.157	682
680.209	700
680.261	676
680.312	690
680.364	722
680.416	672
680.467	708
680.519	676
680.571	714
680.622	696
680.674	678
680.726	682
680.777	686
680.829	670
680.881	668
680.932	668
680.984	664
681.036	692
681.087	696
681.139	678
681.191	708
681.242	678
681.294	684
681.346	690
681.397	650
681.449	692
681.501	670
681.552	694
681.604	674
681.656	710
681.707	680
681.759	682
681.81	688
681.862	696
681.914	688
681.965	702
682.017	692
682.069	674
682.12	702
682.172	730
682.224	672
682.275	688
682.327	660
682.379	700
682.43	698
682.482	682
682.533	678
682.585	692
682.637	690
682.688	676
682.74	682
682.792	674
682.843	676
682.895	658
682.947	686
682.998	702
683.05	676
683.102	692
683.153	688
683.205	690
683.256	714
683.308	690
683.36	704
683.411	684
683.463	666
683.515	702
683.566	682
683.618	708
683.669	702
683.721	702
683.773	708
683.824	688
683.876	692
683.928	682
683.979	698
684.031	700
684.082	686
684.134	718
684.186	682
684.237	708
684.289	678
684.341	684
684.392	678
684.444	698
684.495	672
684.547	670
684.599	700
684.65	650
684.702	674
684.754	690
684.805	678
684.857	678
684.908	710
684.96	686
685.012	700
685.063	688
685.115	714
685.166	678
685.218	692
685.27	712
685.321	694
685.373	682
685.424	690
685.476	702
685.528	668
685.579	682
685.631	692
685.683	696
685.734	684
685.786	698
685.837	678
685.889	700
685.941	656
685.992	684
686.044	692
686.095	694
686.147	686
686.199	626
686.25	660
686.302	666
686.353	670
686.405	672
686.457	644
686.508	694
686.56	680
686.611	696
686.663	662
686.715	700
686.766	696
686.818	686
686.869	696
686.921	682
686.973	672
687.024	668
687.076	682
687.127	662
687.179	668
687.231	654
687.282	690
687.334	662
687.385	668
687.437	666
687.489	670
687.54	702
687.592	694
687.643	668
687.695	678
687.747	676
687.798	692
687.85	684
687.901	680
687.953	672
688.004	680
688.056	692
688.108	698
688.159	662
688.211	690
688.262	644
688.314	700
688.366	686
688.417	696
688.469	704
688.52	692
688.572	670
688.623	660
688.675	668
688.727	664
688.778	668
688.83	678
688.881	682
688.933	644
688.984	670
689.036	652
689.088	682
689.139	670
689.191	684
689.242	656
689.294	670
689.346	670
689.397	648
689.449	684
689.5	692
689.552	678
689.603	668
689.655	660
689.706	660
689.758	658
689.81	652
689.861	672
689.913	664
689.964	678
690.016	672
690.067	670
690.119	662
690.171	676
690.222	654
690.274	658
690.325	676
690.377	652
690.428	642
690.48	666
690.531	668
690.583	666
690.635	646
690.686	660
690.738	660
690.789	640
690.841	650
690.892	666
690.944	652
690.996	672
691.047	652
691.099	646
691.15	662
691.202	688
691.253	666
691.305	656
691.356	656
691.408	660
691.459	664
691.511	658
691.563	678
691.614	644
691.666	672
691.717	670
691.769	662
691.82	678
691.872	642
691.923	684
691.975	654
692.026	676
692.078	654
692.13	642
692.181	648
692.233	652
692.284	654
692.336	668
692.387	648
692.439	658
692.49	646
692.542	620
692.593	652
692.645	650
692.697	664
692.748	650
692.8	662
692.851	644
692.903	644
692.954	664
693.006	630
693.057	632
693.109	652
693.16	650
693.212	648
693.263	652
693.315	652
693.366	650
693.418	642
693.47	632
693.521	654
693.573	644
693.624	644
693.676	646
693.727	636
693.779	658
693.83	634
693.882	658
693.933	630
693.985	632
694.036	640
694.088	642
694.139	656
694.191	674
694.242	662
694.294	640
694.345	640
694.397	632
694.448	648
694.5	642
694.552	644
694.603	632
694.655	658
694.706	658
694.758	640
694.809	630
694.861	638
694.912	642
694.964	622
695.015	656
695.067	634
695.118	642
695.17	652
695.221	644
695.273	642
695.324	614
695.376	644
695.427	630
695.479	646
695.53	638
695.582	636
695.633	604
695.685	640
695.736	636
695.788	632
695.839	628
695.891	634
695.942	648
695.994	634
696.045	628
696.097	636
696.148	630
696.2	642
696.251	646
696.303	654
696.354	638
696.406	616
696.457	652
696.509	632
696.56	660
696.612	624
696.663	636
696.715	610
696.766	634
696.818	604
696.869	642
696.921	636
696.972	622
697.024	642
697.075	632
697.127	638
697.178	654
697.23	616
697.281	630
697.333	650
697.384	652
697.436	618
697.487	630
697.539	628
697.59	648
697.642	644
697.693	630
697.745	600
697.796	624
697.847	630
697.899	620
697.95	596
698.002	626
698.053	620
698.105	618
698.156	610
698.208	610
698.259	622
698.311	614
698.362	604
698.414	612
698.465	602
698.517	608
698.568	588
698.62	634
698.671	606
698.723	592
698.774	590
698.826	634
698.877	616
698.928	618
698.98	618
699.031	618
699.083	622
699.134	602
699.186	626
699.237	604
699.289	614
699.34	622
699.392	610
699.443	630
699.495	616
699.546	598
699.598	602
699.649	592
699.7	602
699.752	596
699.803	568
699.855	606
699.906	606
699.958	584
700.009	622
700.061	610
700.112	598
700.164	576
700.215	620
700.266	614
700.318	588
700.369	594
700.421	608
700.472	618
700.524	586
700.575	600
700.627	596
700.678	586
700.73	604
700.781	610
700.832	626
700.884	626
700.935	608
700.987	590
701.038	608
701.09	620
701.141	644
701.193	590
701.244	618
701.295	598
701.347	576
701.398	574
701.45	612
701.501	616
701.553	646
701.604	610
701.656	602
701.707	588
701.758	596
701.81	610
701.861	612
701.913	610
701.964	600
702.016	606
702.067	584
702.119	612
702.17	598
702.221	612
702.273	608
702.324	604
702.376	592
702.427	598
702.479	618
702.53	614
702.581	610
702.633	600
702.684	580
702.736	596
702.787	620
702.839	588
702.89	582
702.941	606
702.993	610
703.044	614
703.096	616
703.147	596
703.199	606
703.25	616
703.301	592
703.353	572
703.404	600
703.456	612
703.507	630
703.558	584
703.61	610
703.661	608
703.713	596
703.764	608
703.816	616
703.867	582
703.918	568
703.97	592
704.021	612
704.073	618
704.124	586
704.175	598
704.227	572
704.278	564
704.33	602
704.381	588
704.432	594
704.484	584
704.535	576
704.587	590
704.638	606
704.69	602
704.741	588
704.792	600
704.844	598
704.895	602
704.947	574
704.998	572
705.049	584
705.101	576
705.152	596
705.204	624
705.255	598
705.306	586
705.358	572
705.409	588
705.461	576
705.512	594
705.563	580
705.615	568
705.666	582
705.718	586
705.769	582
705.82	578
705.872	582
705.923	580
705.974	596
706.026	588
706.077	576
706.129	560
706.18	574
706.231	600
706.283	588
706.334	564
706.386	588
706.437	566
706.488	564
706.54	570
706.591	584
706.643	584
706.694	588
706.745	584
706.797	574
706.848	574
706.899	588
706.951	568
707.002	588
707.054	574
707.105	574
707.156	562
707.208	560
707.259	584
707.31	580
707.362	574
707.413	572
707.465	566
707.516	576
707.567	548
707.619	572
707.67	562
707.721	570
707.773	556
707.824	564
707.876	550
707.927	556
707.978	578
708.03	554
708.081	558
708.132	588
708.184	564
708.235	554
708.287	584
708.338	574
708.389	570
708.441	556
708.492	544
708.543	574
708.595	550
708.646	564
708.697	554
708.749	580
708.8	576
708.852	574
708.903	562
708.954	546
709.006	560
709.057	578
709.108	574
709.16	554
709.211	524
709.262	562
709.314	540
709.365	544
709.416	568
709.468	560
709.519	552
709.57	572
709.622	568
709.673	574
709.725	558
709.776	528
709.827	548
709.879	546
709.93	546
709.981	540
710.033	554
710.084	560
710.135	542
710.187	552
710.238	548
710.289	554
710.341	546
710.392	568
710.443	570
710.495	546
710.546	532
710.597	542
710.649	550
710.7	570
710.751	560
710.803	560
710.854	538
710.905	560
710.957	544
711.008	548
711.059	552
711.111	542
711.162	554
711.213	554
711.265	536.168
711.316	544.23
711.367	530.312
711.419	532.822
711.47	542.695
711.521	548.515
711.573	548.084
711.624	547.958
711.675	539.109
711.727	546.49
711.778	569.724
711.829	532.96
711.881	527.101
711.932	565.356
711.983	561.091
712.035	542.579
712.086	537.271
712.137	542.588
712.189	535.71
712.24	537.027
712.291	532.702
712.343	551.771
712.394	548.037
712.445	520.875
712.496	544.618
712.548	531.911
712.599	535.61
712.65	529.518
712.702	533.518
712.753	534.674
712.804	525.898
712.856	526.501
712.907	535.836
712.958	535.535
713.01	522.591
713.061	524.42
713.112	546.056
713.164	511.046
713.215	527.697
713.266	530.575
713.317	524.6
713.369	507.19
713.42	528.093
713.471	510.996
713.523	523.15
713.574	534.792
713.625	512.292
713.677	527.049
713.728	516.316
713.779	512.585
713.831	522.662
713.882	520.119
713.933	520.827
713.984	516.235
714.036	511.318
714.087	515.64
714.138	517.462
714.19	510.567
714.241	509.728
714.292	508.154
714.343	497.964
714.395	516.384
714.446	517.407
714.497	499.229
714.549	514.242
714.6	518.615
714.651	504.938
714.703	502.431
714.754	503.284
714.805	512.055
714.856	507.051
714.908	511.226
714.959	508.881
715.01	499.474
715.062	502.342
715.113	514.151
715.164	517.431
715.215	510.832
715.267	501.82
715.318	499.36
715.369	513.375
715.421	500.662
715.472	504.027
715.523	505.397
715.574	498.291
715.626	505.511
715.677	491.83
715.728	509.152
715.779	510.99
715.831	512.573
715.882	502.168
715.933	518.514
715.985	509.609
716.036	498.768
716.087	501.737
716.138	494.122
716.19	519.519
716.241	496.511
716.292	483.797
716.343	498.149
716.395	502.627
716.433	516
716.485	474
716.536	498
716.588	498
716.639	504
716.691	484
716.742	492
716.794	482
716.845	488
716.897	472
716.948	508
717	492
717.052	516
717.103	494
717.155	484
717.206	486
717.258	490
717.309	498
717.361	474
717.412	500
717.464	480
717.515	486
717.567	496
717.618	488
717.67	508
717.721	460
717.773	508
717.824	466
717.876	502
717.927	476
717.979	496
718.03	488
718.082	478
718.133	478
718.185	490
718.237	476
718.288	486
718.34	498
718.391	508
718.443	510
718.494	488
718.546	504
718.597	468
718.649	484
718.7	492
718.752	470
718.803	500
718.855	458
718.906	462
718.958	478
719.009	474
719.061	492
719.112	462
719.164	480
719.215	488
719.267	496
719.318	484
719.37	482
719.421	478
719.473	488
719.524	488
719.576	462
719.627	474
719.679	458
719.73	484
719.782	470
719.833	454
719.885	476
719.936	462
719.988	480
720.039	474
720.091	486
720.142	472
720.194	480
720.245	450
720.297	460
720.348	468
720.4	464
720.451	466
720.503	476
720.554	476
720.606	474
720.657	456
720.709	474
720.76	464
720.812	484
720.863	428
720.915	472
720.966	470
721.018	468
721.069	470
721.121	484
721.172	470
721.224	446
721.275	462
721.327	454
721.378	478
721.43	460
721.481	478
721.532	462
721.584	468
721.635	470
721.687	476
721.738	470
721.79	460
721.841	456
721.893	462
721.944	458
721.996	468
722.047	470
722.099	456
722.15	462
722.202	458
722.253	464
722.305	440
722.356	446
722.408	438
722.459	452
722.511	432
722.562	468
722.614	456
722.665	444
722.716	448
722.768	444
722.819	440
722.871	450
722.922	440
722.974	464
723.025	460
723.077	454
723.128	428
723.18	442
723.231	458
723.283	444
723.334	444
723.386	460
723.437	446
723.488	428
723.54	430
723.591	450
723.643	450
723.694	448
723.746	444
723.797	454
723.849	426
723.9	442
723.952	446
724.003	440
724.055	418
724.106	442
724.157	456
724.209	422
724.26	464
724.312	468
724.363	452
724.415	448
724.466	440
724.518	426
724.569	434
724.621	430
724.672	422
724.723	464
724.775	422
724.826	440
724.878	444
724.929	438
724.981	434
725.032	430
725.084	454
725.135	430
725.187	454
725.238	414
725.289	418
725.341	426
725.392	452
725.444	450
725.495	448
725.547	422
725.598	404
725.65	422
725.701	400
725.752	414
725.804	430
725.855	418
725.907	422
725.958	420
726.01	442
726.061	432
726.112	412
726.164	424
726.215	444
726.267	430
726.318	436
726.37	416
726.421	422
726.473	402
726.524	410
726.575	424
726.627	420
726.678	430
726.73	436
726.781	412
726.833	422
726.884	410
726.935	428
726.987	414
727.038	414
727.09	422
727.141	418
727.193	422
727.244	412
727.295	422
727.347	416
727.398	412
727.45	424
727.501	392
727.552	402
727.604	422
727.655	412
727.707	416
727.758	412
727.81	412
727.861	404
727.912	400
727.964	420
728.015	416
728.067	402
728.118	382
728.17	400
728.221	406
728.272	414
728.324	402
728.375	402
728.427	392
728.478	412
728.529	418
728.581	396
728.632	412
728.684	408
728.735	398
728.786	416
728.838	410
728.889	388
728.941	420
728.992	394
729.044	400
729.095	392
729.146	416
729.198	396
729.249	408
729.301	422
729.352	394
729.403	392
729.455	416
729.506	376
729.558	390
729.609	382
729.66	390
729.712	400
729.763	404
729.815	388
729.866	384
729.917	376
729.969	372
730.02	362
730.072	388
730.123	386
730.174	408
730.226	392
730.277	400
730.329	376
730.38	382
730.431	386
730.483	400
730.534	358
730.586	402
730.637	356
730.688	360
730.74	366
730.791	392
730.842	382
730.894	398
730.945	388
730.997	384
731.048	398
731.099	400
731.151	392
731.202	400
731.254	392
731.305	364
731.356	400
731.408	380
731.459	382
731.51	392
731.562	378
731.613	392
731.665	400
731.716	400
731.767	386
731.819	386
731.87	388
731.922	382
731.973	378
732.024	384
732.076	382
732.127	386
732.178	380
732.23	386
732.281	380
732.333	384
732.384	382
732.435	372
732.487	374
732.538	378
732.589	390
732.641	376
732.692	372
732.744	378
732.795	392
732.846	368
732.898	400
732.949	372
733	390
733.052	364
733.103	372
733.154	392
733.206	384
733.257	362
733.309	390
733.36	348
733.411	392
733.463	372
733.514	378
733.565	368
733.617	380
733.668	366
733.719	358
733.771	374
733.822	372
733.873	376
733.925	362
733.976	362
734.028	356
734.079	368
734.13	388
734.182	388
734.233	380
734.284	378
734.336	390
734.387	348
734.438	384
734.49	400
734.541	366
734.592	376
734.644	364
734.695	380
734.747	376
734.798	368
734.849	376
734.901	378
734.952	370
735.003	378
735.055	388
735.106	406
735.157	368
735.209	400
735.26	372
735.311	376
735.363	364
735.414	372
735.465	372
735.517	402
735.568	382
735.619	360
735.671	394
735.722	378
735.773	386
735.825	358
735.876	392
735.927	384
735.979	398
736.03	392
736.081	402
736.133	386
736.184	382
736.235	360
736.287	392
736.338	348
736.389	386
736.441	382
736.492	376
736.543	390
736.595	406
736.646	358
736.697	398
736.749	412
736.8	380
736.851	390
736.903	396
736.954	402
737.005	378
737.057	398
737.108	388
737.159	412
737.211	400
737.262	416
737.313	420
737.365	412
737.416	398
737.467	390
737.518	402
737.57	406
737.621	396
737.672	406
737.724	410
737.775	408
737.826	392
737.878	396
737.929	384
737.98	422
738.032	388
738.083	402
738.134	402
738.186	430
738.237	424
738.288	420
738.339	388
738.391	386
738.442	404
738.493	402
738.545	394
738.596	408
738.647	412
738.699	404
738.75	402
738.801	412
738.853	412
738.904	402
738.955	388
739.006	414
739.058	364
739.109	380
739.16	394
739.212	382
739.263	372
739.314	394
739.366	372
739.417	392
739.468	372
739.519	386
739.571	376
739.622	376
739.673	382
739.725	362
739.776	390
739.827	404
739.878	386
739.93	378
739.981	370
740.032	396
740.084	400
740.135	366
740.186	382
740.237	382
740.289	378
740.34	364
740.391	350
740.443	382
740.494	368
740.545	354
740.596	372
740.648	368
740.699	362
740.75	352
740.802	364
740.853	368
740.904	372
740.956	346
741.007	364
741.058	358
741.109	356
741.161	356
741.212	340
741.263	344
741.314	354
741.366	338
741.417	358
741.468	358
741.52	340
741.571	362
741.622	360
741.673	354
741.725	354
741.776	330
741.827	356
741.878	344
741.93	348
741.981	340
742.032	346
742.083	346
742.135	360
742.186	332
742.237	344
742.289	350
742.34	340
742.391	352
742.442	340
742.494	336
742.545	334
742.596	338
742.647	342
742.699	328
742.75	338
742.801	336
742.852	328
742.904	322
742.955	338
743.006	330
743.057	342
743.109	340
743.16	320
743.211	326
743.263	338
743.314	328
743.365	348
743.416	318
743.468	344
743.519	336
743.57	310
743.621	316
743.672	338
743.724	344
743.775	332
743.826	332
743.878	336
743.929	332
743.98	320
744.031	328
744.083	332
744.134	330
744.185	308
744.236	340
744.287	328
744.339	334
744.39	332
744.441	330
744.492	320
744.544	328
744.595	326
744.646	324
744.697	298
744.749	330
744.8	314
744.851	336
744.902	326
744.954	330
745.005	314
745.056	328
745.107	314
745.159	330
745.21	312
745.261	304
745.312	324
745.363	322
745.415	320
745.466	314
745.517	310
745.568	322
745.62	308
745.671	320
745.722	322
745.773	326
745.824	296
745.876	324
745.927	326
745.978	322
746.029	310
746.081	314
746.132	304
746.183	296
746.234	324
746.285	324
746.337	326
746.388	302
746.439	318
746.49	322
746.542	304
746.593	326
746.644	310
746.695	314
746.746	294
746.798	298
746.849	302
746.9	324
746.951	300
747.003	308
747.054	304
747.105	304
747.156	306
747.207	330
747.259	298
747.31	296
747.361	316
747.412	308
747.463	306
747.515	304
747.566	304
747.617	302
747.668	300
747.719	294
747.771	318
747.822	300
747.873	304
747.924	314
747.975	304
748.027	294
748.078	300
748.129	300
748.18	316
748.231	296
748.283	332
748.334	296
748.385	320
748.436	294
748.487	306
748.539	300
748.59	294
748.641	284
748.692	314
748.743	278
748.795	310
748.846	298
748.897	320
748.948	314
748.999	296
749.05	308
749.102	322
749.153	288
749.204	294
749.255	296
749.306	292
749.358	280
749.409	292
749.46	296
749.511	292
749.562	290
749.614	284
749.665	290
749.716	314
749.767	292
749.818	294
749.869	288
749.921	302
749.972	296
750.023	306
750.074	298
750.125	282
750.177	306
750.228	284
750.279	280
750.33	294
750.381	288
750.432	304
750.484	280
750.535	312
750.586	298
750.637	300
750.688	286
750.739	272
750.791	288
750.842	300
750.893	282
750.944	282
750.995	296
751.046	278
751.098	304
751.149	290
751.2	290
751.251	296
751.302	280
751.353	304
751.404	280
751.456	282
751.507	304
751.558	284
751.609	276
751.66	296
751.711	292
751.763	280
751.814	286
751.865	270
751.916	298
751.967	280
752.018	280
752.07	276
752.121	264
752.172	278
752.223	296
752.274	268
752.325	270
752.376	280
752.428	290
752.479	298
752.53	288
752.581	294
752.632	292
752.683	280
752.734	276
752.786	270
752.837	290
752.888	280
752.939	284
752.99	252
753.041	290
753.092	266
753.144	284
753.195	268
753.246	272
753.297	274
753.348	278
753.399	266
753.45	284
753.502	282
753.553	284
753.604	280
753.655	274
753.706	272
753.757	280
753.808	278
753.859	282
753.911	266
753.962	276
754.013	254
754.064	284
754.115	282
754.166	262
754.217	266
754.269	274
754.32	280
754.371	278
754.422	278
754.473	264
754.524	262
754.575	266
754.626	262
754.678	272
754.729	274
754.78	250
754.831	276
754.882	264
754.933	268
754.984	266
755.035	248
755.086	270
755.138	262
755.189	254
755.24	248
755.291	268
755.342	278
755.393	252
755.444	252
755.495	262
755.547	250
755.598	268
755.649	264
755.7	264
755.751	276
755.802	248
755.853	270
755.904	244
755.955	264
756.006	262
756.058	254
756.109	256
756.16	274
756.211	252
756.262	260
756.313	268
756.364	244
756.415	260
756.466	256
756.518	272
756.569	276
756.62	258
756.671	256
756.722	256
756.773	252
756.824	264
756.875	266
756.926	234
756.977	252
757.029	258
757.08	254
757.131	258
757.182	252
757.233	258
757.284	254
757.335	238
757.386	250
757.437	238
757.488	246
757.539	244
757.59	258
757.642	268
757.693	252
757.744	254
757.795	260
757.846	244
757.897	252
757.948	236
757.999	258
758.05	242
758.101	242
758.152	240
758.203	248
758.255	250
758.306	254
758.357	248
758.408	258
758.459	236
758.51	242.038
758.561	251.915
758.612	248.125
758.663	244.302
758.714	263.118
758.765	251.901
758.816	249.89
758.867	246.147
758.919	242.419
758.97	252.936
759.021	234.507
759.072	252.954
759.123	257.51
759.174	253.656
759.225	242.241
759.276	246.985
759.327	242.974
759.378	253.672
759.429	256.406
759.48	232.601
759.531	241.835
759.582	256.855
759.633	245.071
759.685	253.776
759.736	239.979
759.787	240.382
759.838	244.672
759.889	246.693
759.94	243.458
759.991	243.027
760.042	237.556
760.093	261.965
760.144	236.375
760.195	241.674
760.246	232.778
760.297	241.16
760.348	235.065
760.399	240.259
760.45	225.017
760.501	238.902
760.552	245.875
760.603	231.675
760.655	241.5
760.706	236.905
760.757	237.363
760.808	234.987
760.859	231.294
760.91	236.465
760.961	230.852
761.012	243.708
761.063	232.582
761.114	227.238
761.165	240.118
761.216	228.69
761.267	241.591
761.318	231.45
761.369	233.531
761.42	234.902
761.471	222.091
761.522	227.298
761.573	230.136
761.624	220.984
761.675	223.566
761.726	233.445
761.777	231.203
761.828	226.428
761.88	237.291
761.931	215.473
761.982	226.862
762.033	233.378
762.084	224.448
762.135	233.56
762.186	232.93
762.237	230.32
762.288	228.225
762.339	228.225
762.39	232.661
762.441	230.1
762.492	224.441
762.543	223.565
762.594	230.629
762.645	221.556
762.696	238.383
762.747	225.424
762.798	220.773
762.849	222.588
762.9	223.743
762.951	207.794
763.002	230.306
763.053	217.136
763.104	221.559
763.155	223.787
763.206	220.731
763.257	221.758
763.308	229.575
763.359	214.472
763.41	233.121
763.461	224.991
763.512	226.156
763.563	223.814
763.614	232.553
763.665	229.883
763.678	228
763.729	212
763.78	220
763.832	236
763.883	218
763.934	224
763.986	212
764.037	214
764.088	216
764.139	220
764.191	228
764.242	220
764.293	226
764.345	214
764.396	216
764.447	214
764.498	216
764.55	206
764.601	218
764.652	216
764.704	220
764.755	212
764.806	228
764.857	220
764.909	220
764.96	222
765.011	224
765.062	212
765.114	228
765.165	206
765.216	218
765.268	196
765.319	230
765.37	212
765.421	190
765.473	224
765.524	212
765.575	226
765.626	212
765.678	206
765.729	210
765.78	214
765.831	216
765.883	220
765.934	204
765.985	216
766.036	210
766.088	220
766.139	226
766.19	220
766.242	220
766.293	214
766.344	206
766.395	222
766.447	220
766.498	212
766.549	216
766.6	220
766.652	200
766.703	218
766.754	210
766.805	208
766.857	208
766.908	214
766.959	204
767.01	214
767.062	208
767.113	202
767.164	212
767.215	206
767.267	210
767.318	206
767.369	208
767.42	218
767.472	206
767.523	200
767.574	208
767.625	220
767.677	200
767.728	206
767.779	200
767.83	200
767.882	200
767.933	212
767.984	206
768.035	218
768.087	202
768.138	214
768.189	218
768.24	218
768.292	192
768.343	208
768.394	208
768.445	196
768.497	204
768.548	208
768.599	210
768.65	208
768.701	200
768.753	222
768.804	208
768.855	186
768.906	196
768.958	192
769.009	194
769.06	196
769.111	214
769.163	198
769.214	184
769.265	194
769.316	184
769.367	196
769.419	200
769.47	188
769.521	208
769.572	198
769.624	212
769.675	202
769.726	202
769.777	186
769.828	192
769.88	180
769.931	212
769.982	194
770.033	192
770.085	192
770.136	196
770.187	178
770.238	188
770.289	184
770.341	190
770.392	188
770.443	196
770.494	192
770.546	202
770.597	174
770.648	190
770.699	194
770.75	188
770.802	196
770.853	186
770.904	200
770.955	194
771.006	188
771.058	196
771.109	192
771.16	194
771.211	176
771.263	186
771.314	196
771.365	184
771.416	194
771.467	200
771.519	202
771.57	192
771.621	188
771.672	182
771.723	184
771.775	174
771.826	192
771.877	186
771.928	182
771.979	184
772.031	184
772.082	182
772.133	180
772.184	200
772.235	196
772.287	172
772.338	194
772.389	182
772.44	194
772.491	194
772.543	184
772.594	190
772.645	190
772.696	188
772.747	190
772.799	172
772.85	176
772.901	188
772.952	182
773.003	182
773.055	172
773.106	180
773.157	180
773.208	188
773.259	174
773.31	182
773.362	168
773.413	156
773.464	182
773.515	174
773.566	176
773.618	186
773.669	174
773.72	194
773.771	178
773.822	174
773.873	178
773.925	180
773.976	174
774.027	172
774.078	172
774.129	170
774.18	172
774.232	172
774.283	160
774.334	178
774.385	158
774.436	172
774.488	164
774.539	194
774.59	168
774.641	182
774.692	164
774.743	166
774.795	174
774.846	170
774.897	172
774.948	162
774.999	166
775.05	168
775.102	172
775.153	166
775.204	172
775.255	162
775.306	178
775.357	174
775.409	180
775.46	174
775.511	166
775.562	178
775.613	174
775.664	150
775.716	172
775.767	174
775.818	170
775.869	174
775.92	164
775.971	168
776.023	182
776.074	158
776.125	156
776.176	168
776.227	160
776.278	168
776.329	154
776.381	184
776.432	180
776.483	160
776.534	164
776.585	174
776.636	158
776.688	162
776.739	168
776.79	168
776.841	178
776.892	150
776.943	162
776.994	174
777.046	164
777.097	162
777.148	168
777.199	152
777.25	172
777.301	160
777.352	164
777.404	164
777.455	172
777.506	172
777.557	168
777.608	146
777.659	158
777.71	166
777.762	162
777.813	170
777.864	166
777.915	162
777.966	166
778.017	162
778.068	158
778.12	142
778.171	160
778.222	168
778.273	166
778.324	156
778.375	168
778.426	168
778.477	158
778.529	150
778.58	168
778.631	166
778.682	156
778.733	158
778.784	154
778.835	166
778.886	152
778.938	152
778.989	160
779.04	158
779.091	148
779.142	162
779.193	138
779.244	152
779.295	156
779.347	160
779.398	150
779.449	158
779.5	156
779.551	168
779.602	140
779.653	182
779.704	150
779.755	152
779.807	164
779.858	162
779.909	158
779.96	162
780.011	154
780.062	164
780.113	146
780.164	142
780.216	164
780.267	152
780.318	152
780.369	156
780.42	154
780.471	140
780.522	148
780.573	156
780.624	156
780.675	140
780.727	144
780.778	142
780.829	156
780.88	150
780.931	154
780.982	162
781.033	156
781.084	148
781.135	168
781.187	140
781.238	156
781.289	136
781.34	150
781.391	148
781.442	156
781.493	132
781.544	148
781.595	152
781.646	152
781.698	140
781.749	146
781.8	140
781.851	146
781.902	148
781.953	154
782.004	128
782.055	140
782.106	140
782.157	146
782.208	146
782.26	158
782.311	144
782.362	146
782.413	146
782.464	138
782.515	150
782.566	142
782.617	138
782.668	158
782.719	142
782.77	148
782.821	142
782.872	140
782.924	140
782.975	138
783.026	138
783.077	128
783.128	140
783.179	126
783.23	156
783.281	138
783.332	150
783.383	144
783.434	158
783.485	148
783.536	152
783.588	140
783.639	146
783.69	134
783.741	136
783.792	138
783.843	144
783.894	122
783.945	144
783.996	132
784.047	140
784.098	136
784.149	150
784.2	144
784.252	130
784.303	134
784.354	134
784.405	138
784.456	128
784.507	134
784.558	154
784.609	144
784.66	144
784.711	134
784.762	140
784.813	146
784.864	126
784.915	122
784.966	128
785.017	138
785.068	134
785.12	140
785.171	140
785.222	140
785.273	116
785.324	144
785.375	138
785.426	138
785.477	130
785.528	126
785.579	136
785.63	128
785.681	134
785.732	130
785.783	140
785.834	116
785.885	126
785.936	144
785.987	122
786.038	140
786.089	126
786.141	146
786.192	140
786.243	130
786.294	116
786.345	126
786.396	128
786.447	126
786.498	140
786.549	136
786.6	132
786.651	136
786.702	130
786.753	132
786.804	124
786.855	146
786.906	136
786.957	132
787.008	128
787.059	136
787.11	134
787.161	136
787.212	122
787.263	110
787.314	124
787.365	138
787.416	130
787.467	126
787.518	132
787.57	122
787.621	122
787.672	140
787.723	124
787.774	130
787.825	138
787.876	132
787.927	132
787.978	126
788.029	128
788.08	130
788.131	126
788.182	124
788.233	128
788.284	136
788.335	130
788.386	118
788.437	120
788.488	116
788.539	128
788.59	122
788.641	134
788.692	126
788.743	116
788.794	118
788.845	126
788.896	116
788.947	118
788.998	132
789.049	126
789.1	116
789.151	134
789.202	126
789.253	134
789.304	114
789.355	132
789.406	112
789.457	126
789.508	122
789.559	132
789.61	122
789.661	124
789.712	118
789.763	132
789.814	112
789.865	114
789.916	110
789.967	122
790.018	116
790.069	122
790.12	118
790.171	124
790.222	118
790.273	110
790.324	120
790.375	126
790.426	126
790.477	124
790.528	124
790.579	118
790.63	126
790.681	120
790.732	118
790.783	116
790.834	120
790.885	110
790.936	122
790.987	106
791.038	122
791.089	120
791.14	130
791.191	118
791.242	128
791.293	108
791.344	122
791.395	122
791.446	116
791.497	120
791.548	118
791.599	112
791.65	118
791.701	110
791.752	114
791.803	112
791.854	130
791.905	106
791.956	108
792.007	124
792.058	118
792.109	116
792.16	118
792.211	116
792.262	126
792.313	124
792.363	122
792.414	116
792.465	104
792.516	120
792.567	124
792.618	110
792.669	110
792.72	114
792.771	114
792.822	134
792.873	110
792.924	112
792.975	132
793.026	110
793.077	118
793.128	112
793.179	112
793.23	110
793.281	100
793.332	116
793.383	122
793.434	112
793.485	108
793.536	114
793.587	104
793.638	114
793.689	110
793.74	112
793.79	104
793.841	118
793.892	104
793.943	98
793.994	104
794.045	112
794.096	110
794.147	112
794.198	116
794.249	114
794.3	98
794.351	110
794.402	108
794.453	116
794.504	94
794.555	118
794.606	96
794.657	100
794.708	108
794.758	118
794.809	102
794.86	100
794.911	98
794.962	114
795.013	100
795.064	94
795.115	92
795.166	106
795.217	112
795.268	106
795.319	104
795.37	112
795.421	110
795.472	104
795.523	108
795.573	112
795.624	116
795.675	100
795.726	102
795.777	102
795.828	110
795.879	116
795.93	108
795.981	106
796.032	106
796.083	104
796.134	102
796.185	100
796.236	106
796.286	94
796.337	120
796.388	96
796.439	106
796.49	100
796.541	104
796.592	96
796.643	106
796.694	104
796.745	104
796.796	100
796.847	104
796.897	104
796.948	102
796.999	98
797.05	106
797.101	106
797.152	90
797.203	96
797.254	108
797.305	102
797.356	92
797.407	104
797.458	88
797.508	98
797.559	96
797.61	104
797.661	102
797.712	100
797.763	102
797.814	98
797.865	102
797.916	104
797.967	92
798.018	98
798.068	98
798.119	100
798.17	96
798.221	104
798.272	98
798.323	104
798.374	96
798.425	96
798.476	96
798.526	104
798.577	90
798.628	104
798.679	104
798.73	98
798.781	96
798.832	98
798.883	96
798.934	98
798.984	92
799.035	86
799.086	92
799.137	112
799.188	94
799.239	96
799.29	94
799.341	104
799.392	104
799.443	98
799.493	106
799.544	94
799.595	96
799.646	98
799.697	98
799.748	92
799.799	94
799.85	88
799.9	94
799.951	94
800.002	100
800.053	90
800.104	100
800.155	92
800.206	98
800.257	74
800.307	92
800.358	88
800.409	104
800.46	78
800.511	104
800.562	86
800.613	102
800.664	92
800.714	96
800.765	94
800.816	98
800.867	94
800.918	92
800.969	94
801.02	102
801.07	82
801.121	86
801.172	94
801.223	90
801.274	88
801.325	92
801.376	82
801.427	92
801.477	104
801.528	92
801.579	88
801.63	92
801.681	90
801.732	94
801.783	88
801.833	86
801.884	92
801.935	102
801.986	88
802.037	92
802.088	92
802.139	82
802.189	92
802.24	80
802.291	84
802.342	88
802.393	90
802.444	90
802.495	96
802.545	82
802.596	86
802.647	96
802.698	92
802.749	82
802.8	86
802.85	84
802.901	96
802.952	88
803.003	88
803.054	90
803.105	100
803.155	82
803.206	86
803.257	88
803.308	98
803.359	76
803.41	96
803.46	82
803.511	92
803.562	84
803.613	80
803.664	92
803.715	82
803.765	82
803.816	86
803.867	76
803.918	86
803.969	84
804.02	88
804.07	88
804.121	90
804.172	88
804.223	84
804.274	76
804.325	94
804.375	94
804.426	88
804.477	88
804.528	90
804.579	86
804.63	82
804.68	80
804.731	94
804.782	88
804.833	78
804.884	80
804.934	76
804.985	90
805.036	82
805.087	80
805.138	90
805.188	90
805.239	84
805.29	72
805.341	82
805.392	80
805.443	90
805.493	83.9965
805.544	76.072
805.595	93.6194
805.646	74.1194
805.697	79.9364
805.747	89.1373
805.798	86.6526
805.849	78.6647
805.9	72.5309
805.951	80.3033
806.001	91.6325
806.052	87.0097
806.103	76.34
806.154	86.7394
806.205	75.0309
806.255	77.7898
806.306	85.2043
806.357	84.7779
806.408	85.1224
806.459	76.4002
806.509	80.9539
806.56	76.3748
806.611	76.5882
806.662	81.8574
806.713	78.2925
806.763	77.7085
806.814	78.6102
806.865	89.8351
806.916	83.6765
806.967	85.4983
807.017	84.2986
807.068	79.6594
807.119	75.4182
807.17	80
807.22	75.2472
807.271	83.7813
807.322	79.4853
807.373	78.1388
807.424	75.9094
807.474	82.9325
807.525	75.6176
807.576	75.4925
807.627	77.6075
807.678	83.1758
807.728	79.6936
807.779	80.1503
807.83	72.9281
807.881	83.1043
807.931	75.3011
807.982	73.2717
808.033	84.0392
808.084	79.1243
808.135	72.8082
808.185	79.488
808.236	76.7054
808.287	82.9229
808.338	80.945
808.388	79.3634
808.439	70.7634
808.49	77.1667
808.541	78.6662
808.591	75.6381
808.642	78.406
808.693	83.2719
808.744	71.5841
808.795	78.4668
808.845	74.7197
808.896	80.0108
808.947	70.5466
808.998	84.7112
809.048	82.1982
809.099	84.5075
809.15	81.5007
809.201	74.0635
809.251	76.087
809.302	73.6826
809.353	75.4462
809.404	72.8974
809.454	69.2696
809.505	85.3689
809.556	74.4423
809.607	75.9599
809.658	72.3173
809.708	77.9843
809.759	71.7711
809.81	68.6711
809.861	76.1741
809.911	83.259
809.962	75.0536
810.013	73.9742
810.064	66.7007
810.114	64.8235
810.165	65.1176
810.216	77.9737
810.267	72.6169
810.317	80.3204
810.368	85.0678
810.419	76.8658
810.469	88.545
810.52	66.287
810.571	73.21
810.622	72.2047
810.627	72
810.678	76
810.729	76
810.78	76
810.831	68
810.882	80
810.933	72
810.984	84
811.035	72
811.086	72
811.137	80
811.188	86
811.239	74
811.29	70
811.341	68
811.392	76
811.443	72
811.494	72
811.545	66
811.596	74
811.648	74
811.699	78
811.75	76
811.801	76
811.852	66
811.903	76
811.954	74
812.005	64
812.056	74
812.107	70
812.158	62
812.209	78
812.26	72
812.311	72
812.362	66
812.413	74
812.464	72
812.515	66
812.566	62
812.617	64
812.668	68
812.719	76
812.77	68
812.821	58
812.872	68
812.923	78
812.974	62
813.025	66
813.076	74
813.127	70
813.178	72
813.229	70
813.28	62
813.331	70
813.382	68
813.433	70
813.484	76
813.535	78
813.586	72
813.637	74
813.688	62
813.739	68
813.79	72
813.841	80
813.892	66
813.943	66
813.994	66
814.045	72
814.096	68
814.147	68
814.198	82
814.249	76
814.3	68
814.351	64
814.402	64
814.453	68
814.504	62
814.555	70
814.606	72
814.657	78
814.708	76
814.759	74
814.81	74
814.861	74
814.912	78
814.963	62
815.014	68
815.065	72
815.116	70
815.167	72
815.217	66
815.268	72
815.319	74
815.37	68
815.421	66
815.472	68
815.523	74
815.574	66
815.625	70
815.676	70
815.727	74
815.778	66
815.829	68
815.88	62
815.931	58
815.982	62
816.033	74
816.084	66
816.135	80
816.186	74
816.237	76
816.288	62
816.339	72
816.39	62
816.441	78
816.492	60
816.543	74
816.594	70
816.645	66
816.696	64
816.747	64
816.798	64
816.849	60
816.9	64
816.951	80
817.001	68
817.052	72
817.103	62
817.154	62
817.205	66
817.256	76
817.307	64
817.358	72
817.409	58
817.46	62
817.511	56
817.562	64
817.613	56
817.664	66
817.715	66
817.766	80
817.817	68
817.868	72
817.919	60
817.97	58
818.021	68
818.071	60
818.122	60
818.173	76
818.224	70
818.275	70
818.326	74
818.377	56
818.428	66
818.479	66
818.53	62
818.581	60
818.632	64
818.683	68
818.734	72
818.785	70
818.836	66
818.887	56
818.938	64
818.988	66
819.039	56
819.09	72
819.141	70
819.192	66
819.243	66
819.294	60
819.345	76
819.396	64
819.447	66
819.498	68
819.549	68
819.6	62
819.651	62
819.702	70
819.753	62
819.803	60
819.854	68
819.905	60
819.956	68
820.007	68
820.058	68
820.109	54
820.16	56
820.211	60
820.262	70
820.313	68
820.364	66
820.415	66
820.465	74
820.516	60
820.567	74
820.618	64
820.669	64
820.72	58
820.771	60
820.822	60
820.873	68
820.924	58
820.975	66
821.026	62
821.076	56
821.127	54
821.178	64
821.229	58
821.28	66
821.331	68
821.382	62
821.433	66
821.484	56
821.535	62
821.586	54
821.637	54
821.687	62
821.738	62
821.789	64
821.84	68
821.891	56
821.942	62
821.993	56
822.044	50
822.095	68
822.146	62
822.196	70
822.247	58
822.298	64
822.349	58
822.4	60
822.451	58
822.502	62
822.553	60
822.604	52
822.655	66
822.706	60
822.756	64
822.807	60
822.858	58
822.909	56
822.96	54
823.011	58
823.062	62
823.113	56
823.164	54
823.214	52
823.265	58
823.316	50
823.367	54
823.418	60
823.469	58
823.52	62
823.571	62
823.622	48
823.672	62
823.723	54
823.774	64
823.825	64
823.876	56
823.927	58
823.978	62
824.029	58
824.08	56
824.13	58
824.181	66
824.232	60
824.283	60
824.334	56
824.385	62
824.436	58
824.487	64
824.537	50
824.588	60
824.639	52
824.69	62
824.741	66
824.792	64
824.843	62
824.893	58
824.944	54
824.995	52
825.046	50
825.097	64
825.148	52
825.199	66
825.25	48
825.3	60
825.351	52
825.402	60
825.453	48
825.504	56
825.555	52
825.606	58
825.657	54
825.707	60
825.758	68
825.809	54
825.86	50
825.911	54
825.962	36
826.013	64
826.063	54
826.114	62
826.165	58
826.216	48
826.267	70
826.318	58
826.369	54
826.419	48
826.47	48
826.521	54
826.572	68
826.623	52
826.674	56
826.725	58
826.775	56
826.826	56
826.877	60
826.928	60
826.979	52
827.03	52
827.08	58
827.131	50
827.182	52
827.233	56
827.284	54
827.335	52
827.386	50
827.436	56
827.487	64
827.538	46
827.589	54
827.64	52
827.691	50
827.741	50
827.792	64
827.843	50
827.894	64
827.945	48
827.996	58
828.046	50
828.097	62
828.148	52
828.199	42
828.25	50
828.301	64
828.351	48
828.402	44
828.453	48
828.504	58
828.555	56
828.606	54
828.656	60
828.707	64
828.758	60
828.809	58
828.86	50
828.911	56
828.961	50
829.012	58
829.063	54
829.114	64
829.165	54
829.216	62
829.266	56
829.317	56
829.368	48
829.419	54
829.47	54
829.52	60
829.571	52
829.622	56
829.673	50
829.724	56
829.774	50
829.825	40
829.876	50
829.927	62
829.978	52
830.029	44
830.079	56
830.13	58
830.181	52
830.232	52
830.283	50
830.333	62
830.384	60
830.435	58
830.486	64
830.537	52
830.587	52
830.638	48
830.689	46
830.74	60
830.791	44
830.841	50
830.892	52
830.943	50
830.994	66
831.045	48
831.095	60
831.146	62
831.197	56
831.248	50
831.299	56
831.349	52
831.4	54
831.451	48
831.502	62
831.553	48
831.603	52
831.654	52
831.705	56
831.756	52
831.807	58
831.857	44
831.908	50
831.959	48
832.01	58
832.061	50
832.111	56
832.162	48
832.213	60
832.264	50
832.315	64
832.365	38
832.416	40
832.467	60
832.518	50
832.568	50
832.619	70
832.67	54
832.721	60
832.772	44
832.822	62
832.873	52
832.924	46
832.975	46
833.025	64
833.076	56
833.127	64
833.178	38
833.229	44
833.279	44
833.33	52
833.381	54
833.432	48
833.482	54
833.533	46
833.584	52
833.635	52
833.685	60
833.736	48
833.787	48
833.838	48
833.889	50
833.939	56
833.99	58
834.041	50
834.092	48
834.142	52
834.193	50
834.244	58
834.295	44
834.345	48
834.396	48
834.447	56
834.498	52
834.548	42
834.599	48
834.65	50
834.701	44
834.751	40
834.802	46
834.853	54
834.904	54
834.954	46
835.005	52
835.056	50
835.107	48
835.157	56
835.208	52
835.259	42
835.31	58
835.36	48
835.411	54
835.462	44
835.513	52
835.563	36
835.614	54
835.665	44
835.716	60
835.766	46
835.817	50
835.868	46
835.919	40
835.969	52
836.02	64
836.071	50
836.122	56
836.172	52
836.223	46
836.274	48
836.325	44
836.375	44
836.426	56
836.477	40
836.528	64
836.578	56
836.629	54
836.68	50
836.73	50
836.781	42
836.832	52
836.883	54
836.933	60
836.984	46
837.035	44
837.086	42
837.136	50
837.187	40
837.238	46
837.288	50
837.339	54
837.39	56
837.441	54
837.491	50
837.542	44
837.593	48
837.643	48
837.694	50
837.745	52
837.796	54
837.846	54
837.897	48
837.948	46
837.999	40
838.049	44
838.1	40
838.151	54
838.201	58
838.252	56
838.303	44
838.354	52
838.404	52
838.455	50
838.506	48
838.556	54
838.607	56
838.658	42
838.708	60
838.759	48
838.81	60
838.861	40
838.911	46
838.962	44
839.013	52
839.063	46
839.114	52
839.165	44
839.216	52
839.266	44
839.317	46
839.368	50
839.418	48
839.469	50
839.52	54
839.57	50
839.621	56
839.672	52
839.722	52
839.773	42
839.824	48
839.875	50
839.925	52
839.976	40
840.027	62
840.077	42
840.128	54
840.179	40
840.229	42
840.28	48
840.331	50
840.381	42
840.432	46
840.483	46
840.534	44
840.584	44
840.635	50
840.686	40
840.736	46
840.787	42
840.838	54
840.888	46
840.939	44
840.99	54
841.04	42
841.091	54
841.142	40
841.192	52
841.243	50
841.294	44
841.344	38
841.395	44
841.446	48
841.496	42
841.547	42
841.598	40
841.648	48
841.699	44
841.75	48
841.8	48
841.851	46
841.902	44
841.952	44
842.003	48
842.054	44
842.104	44
842.155	48
842.206	42
842.256	58
842.307	48
842.358	44
842.408	52
842.459	44
842.51	44
842.56	40
842.611	54
842.662	44
842.712	42
842.763	46
842.814	46
842.864	48
842.915	54
842.966	50
843.016	36
843.067	48
843.118	54
843.168	46
843.219	42
843.269	38
843.32	50
843.371	32
843.421	56
843.472	38
843.523	52
843.573	38
843.624	50
843.675	42
843.725	48
843.776	38
843.827	52
843.877	46
843.928	50
843.979	42
844.029	40
844.08	38
844.13	50
844.181	44
844.232	44
844.282	36
844.333	52
844.384	44
844.434	54
844.485	38
844.536	42
844.586	48
844.637	52
844.687	40
844.738	50
844.789	44
844.839	42
844.89	46
844.941	50
844.991	50
845.042	44
845.092	40
845.143	48
845.194	42
845.244	48
845.295	54
845.346	42
845.396	46
845.447	40
845.497	48
845.548	44
845.599	42
845.649	50
845.7	42
845.75	46
845.801	48
845.852	38
845.902	40
845.953	50
846.004	46
846.054	40
846.105	38
846.155	48
846.206	50
846.257	42
846.307	48
846.358	46
846.409	42
846.459	40
846.51	34
846.56	40
846.611	52
846.661	42
846.712	44
846.763	42
846.813	42
846.864	36
846.915	46
846.965	46
847.016	46
847.066	40
847.117	36
847.168	42
847.218	48
847.269	50
847.319	52
847.37	44
847.421	44
847.471	44
847.522	48
847.572	34
847.623	48
847.674	44
847.724	48
847.775	48
847.825	52
847.876	44
847.926	48
847.977	38
848.028	46
848.078	36
848.129	46
848.179	38
848.23	50
848.281	44
848.331	32
848.382	40
848.432	46
848.483	40
848.534	46
848.584	42
848.635	46
848.685	42
848.736	46
848.786	40
848.837	40
848.888	34
848.938	50
848.989	36
849.039	38
849.09	48
849.14	36
849.191	42
849.242	38
849.292	46
849.343	52
849.393	32
849.444	50
849.494	46
849.545	50
849.596	38
849.646	40
849.697	48
849.747	38
849.798	38
849.848	42
849.899	44
849.95	42
850	40
850.051	44
850.101	38
850.152	44
850.202	42
850.253	38
850.303	32
850.354	40
850.405	46
850.455	44
850.506	40
850.556	34
850.607	44
850.657	36
850.708	42
850.758	36
850.809	42
850.86	42
850.91	42
850.961	42
851.011	40
851.062	42
851.112	42
851.163	36
851.213	46
851.264	44
851.314	46
851.365	38
851.416	52
851.466	34
851.517	44
851.567	30
851.618	44
851.668	34
851.719	54
851.769	38
851.82	40
851.87	42
851.921	42
851.971	36
852.022	48
852.073	40
852.123	42
852.174	40
852.224	52
852.275	38
852.325	43.9712
852.376	36.147
852.426	45.8019
852.477	42.001
852.527	39.222
852.578	36.0004
852.628	43.6097
852.679	35.0437
852.729	38.3474
852.78	37.1284
852.831	39.2024
852.881	31.7772
852.932	44.9639
852.982	36.7867
853.033	39.4618
853.083	37.1035
853.134	39.3011
853.184	38.6319
853.235	42.5986
853.285	32.9481
853.336	45.3183
853.386	42.4309
853.437	29.7185
853.487	42.0949
853.538	44.6325
853.588	42.851
853.639	37.3107
853.689	28.198
853.74	41.9274
853.79	48.6626
853.841	36.7646
853.891	31.4616
853.942	36.2594
853.992	39.8946
854.043	37.5339
854.093	29.7679
854.144	36.0356
854.194	42.0183
854.245	37.975
854.295	38.9081
854.346	40.8061
854.396	46.4997
854.447	31.7139
854.497	36.6232
854.548	40
854.598	38.91
854.649	39.6392
854.699	36
854.75	38.499
854.8	41.01
854.851	35.2407
854.901	34.0883
854.952	35.4766
855.002	39.2206
855.053	34.7279
855.103	38.6524
855.154	39.456
855.204	45.8341
855.255	36.9411
855.305	35.2233
855.356	38.9933
855.406	38.892
855.457	35.7242
855.507	38.1747
855.558	35.0048
855.608	41.6228
855.659	37.792
855.709	37.5541
855.76	31.9921
855.81	35.1327
855.861	38.8139
855.911	35.108
855.962	35.5063
856.012	44.3108
856.063	41.0037
856.113	36.6025
856.164	33.2394
856.214	35.1886
856.265	36.1658
856.315	35.64
856.366	34.78
856.416	38.9883
856.467	40.2242
856.517	40.0836
856.568	33.8103
856.618	35.3729
856.668	42.1174
856.719	38.2897
856.769	36.0087
856.82	41.6283
856.87	38.0464
856.921	35.8046
856.971	38.3
857.022	39.4471
857.072	40.9268
857.123	40.6248
857.173	34.2645
857.224	32.7993
857.274	40.7561
857.325	42.1479
857.352	40
857.403	34
857.453	40
857.504	42
857.555	26
857.606	32
857.656	32
857.707	34
857.758	34
857.809	36
857.859	48
857.91	38
857.961	38
858.012	32
858.063	44
858.113	34
858.164	34
858.215	34
858.266	42
858.316	48
858.367	36
858.418	32
858.469	46
858.519	42
858.57	40
858.621	40
858.672	36
858.722	44
858.773	36
858.824	28
858.875	40
858.925	40
858.976	40
859.027	40
859.078	32
859.128	38
859.179	38
859.23	30
859.281	36
859.331	38
859.382	46
859.433	34
859.483	36
859.534	38
859.585	32
859.636	26
859.686	30
859.737	42
859.788	44
859.839	36
859.889	36
859.94	38
859.991	38
860.042	32
860.092	38
860.143	32
860.194	42
860.245	36
860.295	38
860.346	48
860.397	36
860.447	36
860.498	32
860.549	38
860.6	40
860.65	36
860.701	36
860.752	42
860.802	34
860.853	26
860.904	34
860.955	40
861.005	38
861.056	30
861.107	34
861.158	34
861.208	40
861.259	32
861.31	42
861.36	32
861.411	38
861.462	30
861.513	30
861.563	44
861.614	38
861.665	46
861.715	34
861.766	36
861.817	36
861.868	26
861.918	28
861.969	48
862.02	44
862.07	32
862.121	42
862.172	40
862.223	38
862.273	22
862.324	36
862.375	38
862.425	36
862.476	36
862.527	28
862.577	36
862.628	42
862.679	42
862.73	30
862.78	42
862.831	44
862.882	34
862.932	42
862.983	40
863.034	38
863.084	34
863.135	40
863.186	44
863.237	40
863.287	32
863.338	34
863.389	40
863.439	38
863.49	44
863.541	30
863.591	36
863.642	28
863.693	36
863.744	24
863.794	40
863.845	34
863.896	38
863.946	38
863.997	30
864.048	38
864.098	40
864.149	34
864.2	38
864.25	44
864.301	40
864.352	34
864.402	36
864.453	40
864.504	34
864.555	26
864.605	28
864.656	38
864.707	32
864.757	38
864.808	32
864.859	42
864.909	36
864.96	44
865.011	34
865.061	42
865.112	40
865.163	32
865.213	36
865.264	42
865.315	38
865.365	28
865.416	32
865.467	40
865.517	34
865.568	28
865.619	36
865.669	40
865.72	40
865.771	30
865.821	28
865.872	36
865.923	36
865.973	32
866.024	38
866.075	34
866.125	44
866.176	34
866.227	26
866.277	40
866.328	40
866.379	40
866.429	32
866.48	28
866.531	32
866.581	36
866.632	30
866.683	40
866.733	38
866.784	28
866.835	38
866.885	26
866.936	44
866.987	34
867.037	32
867.088	42
867.138	38
867.189	40
867.24	34
867.29	36
867.341	36
867.392	36
867.442	28
867.493	34
867.544	28
867.594	42
867.645	36
867.696	32
867.746	46
867.797	42
867.848	36
867.898	40
867.949	38
867.999	40
868.05	30
868.101	44
868.151	26
868.202	38
868.253	36
868.303	26
868.354	36
868.405	38
868.455	30
868.506	40
868.556	38
868.607	38
868.658	32
868.708	32
868.759	32
868.81	34
868.86	38
868.911	36
868.961	40
869.012	26
869.063	30
869.113	40
869.164	40
869.215	40
869.265	32
869.316	34
869.367	42
869.417	38
869.468	32
869.518	34
869.569	36
869.62	32
869.67	30
869.721	28
869.771	42
869.822	36
869.873	36
869.923	34
869.974	34
870.025	48
870.075	28
870.126	24
870.176	40
870.227	42
870.278	38
870.328	34
870.379	34
870.43	42
870.48	34
870.531	28
870.581	40
870.632	38
870.683	26
870.733	28
870.784	32
870.834	42
870.885	38
870.936	36
870.986	36
871.037	36
871.087	36
871.138	34
871.189	34
871.239	42
871.29	28
871.34	36
871.391	30
871.442	34
871.492	38
871.543	40
871.593	34
871.644	40
871.695	42
871.745	36
871.796	36
871.846	36
871.897	42
871.948	28
871.998	32
872.049	42
872.099	30
872.15	28
872.201	34
872.251	38
872.302	32
872.352	24
872.403	36
872.453	36
872.504	40
872.555	36
872.605	34
872.656	32
872.706	28
872.757	28
872.808	34
872.858	38
872.909	34
872.959	30
873.01	30
873.06	34
873.111	30
873.162	28
873.212	26
873.263	38
873.313	36
873.364	32
873.415	24
873.465	34
873.516	36
873.566	26
873.617	36
873.667	34
873.718	32
873.769	34
873.819	28
873.87	38
873.92	42
873.971	40
874.021	36
874.072	38
874.123	32
874.173	26
874.224	34
874.274	32
874.325	40
874.375	34
874.426	24
874.477	36
874.527	32
874.578	34
874.628	34
874.679	26
874.729	34
874.78	36
874.83	34
874.881	46
874.932	28
874.982	34
875.033	36
875.083	34
875.134	40
875.184	32
875.235	32
875.285	32
875.336	36
875.387	44
875.437	30
875.488	32
875.538	40
875.589	34
875.639	34
875.69	36
875.74	36
875.791	44
875.841	34
875.892	30
875.943	40
875.993	36
876.044	32
876.094	26
876.145	34
876.195	36
876.246	34
876.296	24
876.347	38
876.397	38
876.448	40
876.499	28
876.549	38
876.6	36
876.65	30
876.701	18
876.751	34
876.802	32
876.852	34
876.903	28
876.953	38
877.004	36
877.054	34
877.105	34
877.155	34
877.206	34
877.257	24
877.307	32
877.358	32
877.408	46
877.459	24
877.509	30
877.56	32
877.61	36
877.661	38
877.711	30
877.762	38
877.812	36
877.863	36
877.913	24
877.964	42
878.014	30
878.065	28
878.115	34
878.166	30
878.216	34
878.267	38
878.318	30
878.368	36
878.419	26
878.469	34
878.52	34
878.57	30
878.621	40
878.671	26
878.722	32
878.772	32
878.823	36
878.873	36
878.924	32
878.974	32
879.025	36
879.075	34
879.126	30
879.176	40
879.227	26
879.277	32
879.328	32
879.378	40
879.429	36
879.479	34
879.53	36
879.58	28
879.631	38
879.681	36
879.732	28
879.782	30
879.833	38
879.883	36
879.934	32
879.984	36
880.035	42
880.085	36
880.136	32
880.186	36
880.237	40
880.287	34
880.338	24
880.388	38
880.439	36
880.489	36
880.54	28
880.59	30
880.641	40
880.691	36
880.742	32
880.792	36
880.842	40
880.893	42
880.943	32
880.994	38
881.044	42
881.095	30
881.145	28
881.196	38
881.246	44
881.297	42
881.347	34
881.398	32
881.448	42
881.499	32
881.549	24
881.6	36
881.65	30
881.701	34
881.751	30
881.802	34
881.852	32
881.902	32
881.953	38
882.003	32
882.054	34
882.104	40
882.155	36
882.205	28
882.256	30
882.306	30
882.357	30
882.407	26
882.458	30
882.508	34
882.559	30
882.609	32
882.659	32
882.71	34
882.76	38
882.811	30
882.861	32
882.912	38
882.962	44
883.013	36
883.063	34
883.114	26
883.164	34
883.214	28
883.265	28
883.315	32
883.366	34
883.416	24
883.467	26
883.517	32
883.568	36
883.618	34
883.669	34
883.719	38
883.769	36
883.82	32
883.87	38
883.921	34
883.971	34
884.022	30
884.072	30
884.123	36
884.173	34
884.223	24
884.274	26
884.324	32
884.375	34
884.425	24
884.476	32
884.526	36
884.577	32
884.627	38
884.677	34
884.728	34
884.778	40
884.829	38
884.879	32
884.93	36
884.98	28
885.03	24
885.081	38
885.131	36
885.182	42
885.232	26
885.283	22
885.333	38
885.383	34
885.434	26
885.484	38
885.535	34
885.585	36
885.635	28
885.686	36
885.736	42
885.787	34
885.837	34
885.888	38
885.938	38
885.988	42
886.039	34
886.089	26
886.14	36
886.19	30
886.241	24
886.291	20
886.341	32
886.392	40
886.442	28
886.493	32
886.543	32
886.593	34
886.644	34
886.694	32
886.745	28
886.795	38
886.845	34
886.896	30
886.946	30
886.997	34
887.047	34
887.097	26
887.148	28
887.198	40
887.249	38
887.299	32
887.349	24
887.4	32
887.45	36
887.501	28
887.551	24
887.602	40
887.652	30
887.702	26
887.753	30
887.803	28
887.853	32
887.904	22
887.954	26
888.005	36
888.055	30
888.105	28
888.156	24
888.206	36
888.257	28
888.307	28
888.357	38
888.408	34
888.458	28
888.509	24
888.559	34
888.609	30
888.66	36
888.71	32
888.76	24
888.811	30
888.861	34
888.912	18
888.962	26
889.012	36
889.063	30
889.113	28
889.163	24
889.214	42
889.264	22
889.315	22
889.365	32
889.415	26
889.466	38
889.516	30
889.566	32
889.617	34
889.667	32
889.718	24
889.768	32
889.818	38
889.869	32
889.919	28
889.969	30
890.02	36
890.07	32
890.12	28
890.171	30
890.221	30
890.272	36
890.322	28
890.372	30
890.423	34
890.473	24
890.523	34
890.574	30
890.624	34
890.674	34
890.725	36
890.775	18
890.826	30
890.876	30
890.926	30
890.977	30
891.027	28
891.077	36
891.128	34
891.178	20
891.228	32
891.279	30
891.329	38
891.379	28
891.43	34
891.48	40
891.53	28
891.581	28
891.631	28
891.681	22
891.732	26
891.782	26
891.832	36
891.883	34
891.933	32
891.983	26
892.034	22
892.084	34
892.134	36
892.185	28
892.235	18
892.286	32
892.336	32
892.386	32
892.437	20
892.487	34
892.537	40
892.587	22
892.638	32
892.688	28
892.738	30
892.789	28
892.839	36
892.889	28
892.94	42
892.99	26
893.04	28
893.091	34
893.141	30
893.191	30
893.242	30
893.292	32
893.342	30
893.393	26
893.443	22
893.493	28
893.544	28
893.594	30
893.644	22
893.695	20
893.745	40
893.795	28
893.846	24
893.896	28
893.946	30
893.996	30
894.047	32
894.097	34
894.147	36
894.198	28
894.248	28
894.298	34
894.349	28
894.399	34
894.449	34
894.5	30
894.55	36
894.6	30
894.65	32
894.701	26
894.751	32
894.801	26
894.852	32
894.902	30
894.952	34
895.003	30
895.053	26
895.103	28
895.153	28
895.204	28
895.254	16
895.304	28
895.355	28
895.405	34
895.455	28
895.505	30
895.556	22
895.606	24
895.656	28
895.707	30
895.757	32
895.807	36
895.858	30
895.908	26
895.958	30
896.008	36
896.059	10
896.109	22
896.159	28
896.21	30
896.26	20
896.31	24
896.36	24
896.411	36
896.461	22
896.511	22
896.561	30
896.612	30
896.662	28
896.712	28
896.763	38
896.813	34
896.863	30
896.913	24
896.964	32
897.014	28
897.064	24
897.115	24
897.165	28
897.215	30
897.265	30
897.316	18
897.366	32
897.416	30
897.466	26
897.517	30
897.567	26
897.617	30
897.667	26
897.718	24
897.768	32
897.818	24
897.868	26
897.919	22
897.969	30
898.019	32
898.069	20
898.12	24
898.17	32
898.22	26
898.27	26
898.321	26
898.371	26
898.421	32
898.471	36
898.522	28
898.572	20
898.622	34
898.672	30
898.723	30
898.773	28
898.823	30
898.873	30
898.924	30
898.974	28
899.024	34
899.074	18
899.125	26
899.175	32
899.225	34
899.275	26
899.326	28
899.376	20
899.426	32
899.476	32
899.527	24
899.577	28
899.627	38
899.677	28
899.728	28
899.778	28
899.828	34
899.878	26
899.928	18
899.979	22
