#Acq. time (s)=	3
#Accumulations=	2
#Range (nm)=	520...900
#Windows=	8
#Auto scanning=	Off
#Autofocus=	Off
#AutoExposure=	Off
#Spike filter=	Multiple accum.
#Delay time (s)=	0
#Binning=	1
#Readout mode=	Signal
#DeNoise=	Off
#ICS correction=	Off
#Dark correction=	Off
#Inst. Process=	Off
#Detector temperature (°C)=	-59.98
#Instrument=	LabRAM HR Evol
#Detector=	Syncerity OE
#Objective=	x50_VIS
#Grating=	600 (500nm)
#ND Filter=	10%
#Laser=	514nm_Edge
#Hole=	199.981
#Range=	Auto
#StageXY=	Marzhauser
#StageZ=	Marzhauser
#X (µm)=	0
#Y (µm)=	0
#Z (µm)=	0
#Full time(mm:ss)=	1:32
#Project=	
#Sample=	
#Site=	
#Title=	M6_270224
#Remark=	
#Date=	06.03.2024 10:23
#Acquired=	06.03.2024 10:23:55
520.044	34
520.097	28
520.149	16
520.201	18
520.254	30
520.306	26
520.359	24
520.411	34
520.464	26
520.516	28
520.569	16
520.621	26
520.674	22
520.726	22
520.778	28
520.831	24
520.883	32
520.936	24
520.988	28
521.041	22
521.093	28
521.146	22
521.198	20
521.25	22
521.303	30
521.355	24
521.408	28
521.46	24
521.513	28
521.565	26
521.617	22
521.67	30
521.722	28
521.775	30
521.827	24
521.88	20
521.932	20
521.984	32
522.037	24
522.089	24
522.142	26
522.194	26
522.247	26
522.299	20
522.352	30
522.404	32
522.456	12
522.509	26
522.561	24
522.614	28
522.666	24
522.719	28
522.771	24
522.823	26
522.876	22
522.928	24
522.981	30
523.033	24
523.086	26
523.138	22
523.19	28
523.243	30
523.295	22
523.348	20
523.4	30
523.453	26
523.505	18
523.557	22
523.61	26
523.662	30
523.715	20
523.767	20
523.82	34
523.872	26
523.924	22
523.977	22
524.029	24
524.082	40
524.134	26
524.186	20
524.239	30
524.291	26
524.344	24
524.396	24
524.449	28
524.501	36
524.553	20
524.606	24
524.658	24
524.711	26
524.763	32
524.815	24
524.868	30
524.92	36
524.973	30
525.025	22
525.078	22
525.13	28
525.182	28
525.235	26
525.287	30
525.34	32
525.392	30
525.444	22
525.497	16
525.549	32
525.602	22
525.654	22
525.706	24
525.759	32
525.811	30
525.864	22
525.916	30
525.969	22
526.021	32
526.073	24
526.126	26
526.178	30
526.231	26
526.283	22
526.335	26
526.388	28
526.44	26
526.493	20
526.545	20
526.597	24
526.65	22
526.702	24
526.755	28
526.807	22
526.859	26
526.912	18
526.964	28
527.017	28
527.069	30
527.121	18
527.174	24
527.226	26
527.279	32
527.331	24
527.383	24
527.436	26
527.488	28
527.54	28
527.593	26
527.645	30
527.698	32
527.75	22
527.802	22
527.855	30
527.907	24
527.96	26
528.012	28
528.064	26
528.117	36
528.169	30
528.222	26
528.274	34
528.326	26
528.379	16
528.431	24
528.484	30
528.536	36
528.588	24
528.641	22
528.693	28
528.745	32
528.798	32
528.85	28
528.903	26
528.955	38
529.007	24
529.06	22
529.112	30
529.164	30
529.217	26
529.269	24
529.322	24
529.374	32
529.426	26
529.479	32
529.531	28
529.584	28
529.636	26
529.688	22
529.741	26
529.793	30
529.845	28
529.898	30
529.95	18
530.003	30
530.055	30
530.107	28
530.16	24
530.212	34
530.264	32
530.317	24
530.369	24
530.422	30
530.474	26
530.526	28
530.579	18
530.631	36
530.683	24
530.736	28
530.788	20
530.841	32
530.893	28
530.945	32
530.998	18
531.05	28
531.102	26
531.155	32
531.207	26
531.259	26
531.312	32
531.364	26
531.417	18
531.469	34
531.521	32
531.574	20
531.626	36
531.678	28
531.731	36
531.783	26
531.835	24
531.888	28
531.94	28
531.992	28
532.045	24
532.097	34
532.15	26
532.202	28
532.254	22
532.307	32
532.359	34
532.411	26
532.464	38
532.516	34
532.568	32
532.621	32
532.673	28
532.726	34
532.778	22
532.83	24
532.883	30
532.935	38
532.987	36
533.04	32
533.092	26
533.144	28
533.197	32
533.249	34
533.301	30
533.354	32
533.406	32
533.458	26
533.511	24
533.563	24
533.615	32
533.668	32
533.72	24
533.773	28
533.825	34
533.877	34
533.93	32
533.982	24
534.034	34
534.087	34
534.139	26
534.191	32
534.244	38
534.296	22
534.348	22
534.401	26
534.453	34
534.505	26
534.558	24
534.61	20
534.662	26
534.715	26
534.767	26
534.819	24
534.872	30
534.924	38
534.976	30
535.029	28
535.081	42
535.133	28
535.186	26
535.238	32
535.29	36
535.343	36
535.395	26
535.447	34
535.5	36
535.552	28
535.604	20
535.657	24
535.709	32
535.761	32
535.814	26
535.866	24
535.918	28
535.971	36
536.023	36
536.075	34
536.128	32
536.18	44
536.232	32
536.285	26
536.337	32
536.389	28
536.442	32
536.494	34
536.546	34
536.599	34
536.651	34
536.703	32
536.755	30
536.808	32
536.86	28
536.912	36
536.965	26
537.017	40
537.069	36
537.122	34
537.174	32
537.226	30
537.279	38
537.331	30
537.383	24
537.436	36
537.488	24
537.54	32
537.593	34
537.645	36
537.697	34
537.75	30
537.802	30
537.854	38
537.906	34
537.959	26
538.011	22
538.063	36
538.116	28
538.168	28
538.22	32
538.273	36
538.325	22
538.377	32
538.43	28
538.482	32
538.534	32
538.586	28
538.639	28
538.691	32
538.743	26
538.796	30
538.848	26
538.9	38
538.953	36
539.005	32
539.057	28
539.109	40
539.162	42
539.214	24
539.266	28
539.319	34
539.371	40
539.423	26
539.476	26
539.528	38
539.58	26
539.633	22
539.685	24
539.737	28
539.789	36
539.842	30
539.894	24
539.946	34
539.999	34
540.051	26
540.103	30
540.155	28
540.208	38
540.26	32
540.312	32
540.365	28
540.417	26
540.469	34
540.521	32
540.574	30
540.626	38
540.678	32
540.731	30
540.783	34
540.835	34
540.888	42
540.94	36
540.992	30
541.044	36
541.097	34
541.149	30
541.201	34
541.254	32
541.306	34
541.358	28
541.41	26
541.463	30
541.515	30
541.567	36
541.62	30
541.672	30
541.724	34
541.776	32
541.829	34
541.881	34
541.933	32
541.985	30
542.038	24
542.09	30
542.142	34
542.195	24
542.247	32
542.299	40
542.351	36
542.404	36
542.456	34
542.508	34
542.56	32
542.613	28
542.665	28
542.717	40
542.77	32
542.822	26
542.874	28
542.926	30
542.979	34
543.031	22
543.083	32
543.135	34
543.188	34
543.24	32
543.292	20
543.344	34
543.397	32
543.449	24
543.501	30
543.554	36
543.606	34
543.658	28
543.71	30
543.763	32
543.815	42
543.867	34
543.919	32
543.972	36
544.024	28
544.076	28
544.128	28
544.181	36
544.233	38
544.285	24
544.337	26
544.39	34
544.442	32
544.494	28
544.547	36
544.599	38
544.651	38
544.703	36
544.755	34
544.808	34
544.86	36
544.912	30
544.965	38
545.017	32
545.069	44
545.121	34
545.174	34
545.226	18
545.278	32
545.33	38
545.383	30
545.435	28
545.487	38
545.539	44
545.591	28
545.644	34
545.696	38
545.748	36
545.8	36
545.853	26
545.905	42
545.957	38
546.009	34
546.062	24
546.114	38
546.166	34
546.218	32
546.271	30
546.323	46
546.375	28
546.427	36
546.48	26
546.532	30
546.584	40
546.636	34
546.689	32
546.741	44
546.793	30
546.845	32
546.898	30
546.95	38
547.002	32
547.054	26
547.106	38
547.159	36
547.211	34
547.263	38
547.315	32
547.368	40
547.42	36
547.472	24
547.524	36
547.577	36
547.629	34
547.681	30
547.733	38
547.785	34
547.838	40
547.89	34
547.942	20
547.994	40
548.047	40
548.099	22
548.151	42
548.203	38
548.255	40
548.308	38
548.36	32
548.412	42
548.464	34
548.517	26
548.569	36
548.621	38
548.673	42
548.725	42
548.778	38
548.83	42
548.882	40
548.934	32
548.987	34
549.039	34
549.091	42
549.143	40
549.195	38
549.248	44
549.3	40
549.352	42
549.404	38
549.456	34
549.509	54
549.561	38
549.613	34
549.665	28
549.718	38
549.77	46
549.822	36
549.874	28
549.926	38
549.979	46
550.031	36
550.083	36
550.135	38
550.187	42
550.24	38
550.292	38
550.344	46
550.396	42
550.448	42
550.501	34
550.553	42
550.605	36
550.657	40
550.709	46
550.762	44
550.814	40
550.866	46
550.918	38
550.97	52
551.023	44
551.075	48
551.127	46
551.179	50
551.231	52
551.284	58
551.336	48
551.388	56
551.44	50
551.492	56
551.545	52
551.597	72
551.649	56
551.701	66
551.753	74
551.806	78
551.858	84
551.91	94
551.962	86
552.014	108
552.067	110
552.119	122
552.171	142
552.223	168
552.275	218
552.327	250
552.38	400
552.432	844
552.484	1742
552.536	3168
552.588	5524
552.641	10330
552.693	14992
552.745	10162
552.797	4732
552.849	1768
552.901	692
552.954	372
553.006	258
553.058	206
553.11	148
553.162	134
553.215	108
553.267	96
553.319	90
553.371	92
553.423	82
553.475	78
553.528	66
553.58	64
553.632	60
553.684	64
553.736	60
553.788	66
553.841	52
553.893	56
553.945	54
553.997	64
554.049	46
554.102	50
554.154	50
554.206	52
554.258	52
554.31	54
554.362	56
554.414	50
554.467	52
554.519	36
554.571	46
554.623	46
554.675	38
554.727	48
554.78	54
554.832	52
554.884	36
554.936	42
554.988	44
555.04	44
555.093	44
555.145	36
555.197	46
555.249	48
555.301	44
555.353	38
555.406	42
555.458	48
555.51	40
555.562	34
555.614	40
555.666	38
555.719	40
555.771	34
555.823	42
555.875	46
555.927	34
555.979	26
556.031	44
556.084	40
556.136	30
556.188	38
556.24	38
556.292	48
556.344	42
556.396	40
556.449	42
556.501	48
556.553	38
556.605	54
556.657	44
556.709	46
556.762	38
556.814	42
556.866	42
556.918	44
556.97	46
557.022	40
557.074	40
557.127	46
557.179	46
557.231	42
557.283	42
557.335	42
557.387	46
557.439	44
557.492	40
557.544	52
557.596	40
557.648	42
557.7	40
557.752	44
557.804	38
557.856	34
557.909	44
557.961	42
558.013	40
558.065	38
558.117	36
558.169	40
558.221	40
558.273	40
558.326	48
558.378	48
558.43	44
558.482	42
558.534	30
558.586	46
558.638	48
558.691	38
558.743	38
558.795	42
558.847	48
558.899	38
558.951	44
559.003	42
559.055	42
559.108	44
559.16	38
559.212	44
559.264	38
559.316	34
559.368	42
559.42	40
559.472	50
559.525	40
559.577	38
559.629	46
559.681	46
559.733	48
559.785	34
559.837	52
559.889	46
559.941	40
559.994	32
560.046	54
560.098	54
560.15	42
560.202	36
560.254	46
560.306	48
560.358	46
560.41	36
560.463	52
560.515	44
560.567	44
560.619	48
560.671	42
560.723	54
560.775	42
560.827	50
560.879	46
560.932	44
560.984	44
561.036	42
561.088	52
561.14	50
561.192	44
561.244	40
561.296	46
561.348	46
561.4	48
561.453	40
561.505	36
561.557	56
561.609	48
561.661	48
561.713	42
561.765	46
561.817	44
561.869	46
561.921	48
561.974	54
562.026	50
562.078	46
562.13	48
562.182	50
562.234	46
562.286	44
562.338	50
562.39	46
562.442	42
562.494	44
562.547	38
562.599	50
562.651	50
562.703	40
562.755	46
562.807	58
562.859	48
562.911	46
562.963	40
563.015	50
563.067	54
563.12	40
563.172	52
563.224	52
563.276	38
563.328	42
563.38	50
563.432	48
563.484	44
563.536	42
563.588	44
563.64	54
563.692	44
563.744	56
563.797	54
563.849	50
563.901	56
563.953	54
564.005	40
564.057	56
564.109	46
564.161	48
564.213	54
564.265	54
564.317	46
564.369	42
564.421	46
564.474	60
564.526	48
564.578	48
564.63	46
564.682	46
564.734	52
564.786	48
564.838	52
564.89	44
564.942	46
564.994	44
565.046	52
565.098	52
565.15	50
565.202	40
565.255	48
565.307	42
565.359	54
565.411	44
565.463	46
565.515	46
565.567	54
565.619	60
565.671	50
565.723	40
565.775	48
565.827	52
565.879	52
565.931	58
565.983	56
566.035	56
566.087	56
566.139	54
566.192	48
566.244	56
566.296	46
566.348	42
566.4	60
566.452	54
566.504	44
566.556	46
566.608	58
566.66	52
566.712	42
566.764	48
566.816	60
566.868	58
566.92	44
566.972	60
567.024	48
567.076	60
567.128	60
567.18	48
567.232	60
567.285	52
567.337	50
567.389	52
567.441	62
567.493	56
567.545	50
567.597	48
567.649	60
567.701	50
567.753	42
567.805	44
567.857	52
567.909	60
567.961	48
568.013	50
568.065	66
568.117	62.03
568.169	56.1639
568.221	57.9874
568.273	53.8969
568.325	58.5908
568.377	63.3482
568.429	44.78
568.481	53.9203
568.533	50.344
568.585	54.1891
568.637	59.4745
568.69	55.4317
568.742	62.2395
568.794	57.9849
568.846	52.8917
568.898	56.789
568.95	55.7552
569.002	60.3721
569.054	58.37
569.106	49.8015
569.158	61.95
569.21	52.8198
569.262	58.9444
569.314	60.0673
569.366	58.1574
569.418	61.5555
569.47	53.8185
569.522	56.3964
569.574	64.0263
569.626	62.933
569.678	59.0711
569.73	62.7028
569.782	56.8428
569.834	59.5993
569.886	55.0341
569.938	59.8729
569.99	61.7803
570.042	61.9065
570.094	50.8035
570.146	56.6157
570.198	58.5676
570.25	62.468
570.302	57.0089
570.354	61.0448
570.406	65.5129
570.458	60.5099
570.51	60.1493
570.562	66.5252
570.614	67.705
570.666	64.2604
570.718	63.01
570.77	58.4414
570.822	62.6763
570.874	65.66
570.926	62.2938
570.978	68.6291
571.03	60.0964
571.082	57.5405
571.134	63.3911
571.186	67.3374
571.238	68.74
571.29	67.6288
571.342	70.854
571.394	66.1913
571.446	68.13
571.498	70.8222
571.55	65.136
571.602	72.6617
571.654	65.89
571.706	64.8737
571.758	60.6777
571.81	67.0855
571.862	67.9255
571.914	74.0399
571.966	69.1919
572.018	65.3569
572.07	70.6846
572.122	71.5664
572.174	71.6189
572.226	70.5725
572.278	66.3239
572.33	69.8827
572.382	78.0211
572.434	69.6082
572.486	72.4431
572.538	71.5682
572.59	77.663
572.642	75.9521
572.694	80.2238
572.746	74.2153
572.798	82.7621
572.85	69.5088
572.902	75.0039
572.954	79.5084
573.006	88.3227
573.058	77.4868
573.11	85.6752
573.162	83.7528
573.214	80.7285
573.266	83.5457
573.312	80
573.364	84
573.416	88
573.469	90
573.521	100
573.573	88
573.625	88
573.677	90
573.73	96
573.782	86
573.834	104
573.886	108
573.938	106
573.991	94
574.043	96
574.095	102
574.147	108
574.199	88
574.252	110
574.304	106
574.356	108
574.408	108
574.46	108
574.513	104
574.565	116
574.617	112
574.669	124
574.721	114
574.774	124
574.826	118
574.878	122
574.93	134
574.982	124
575.035	114
575.087	136
575.139	122
575.191	148
575.243	112
575.296	122
575.348	132
575.4	138
575.452	120
575.504	134
575.556	136
575.609	136
575.661	140
575.713	118
575.765	134
575.817	134
575.87	120
575.922	136
575.974	138
576.026	134
576.078	128
576.131	124
576.183	140
576.235	126
576.287	124
576.339	126
576.391	132
576.444	110
576.496	126
576.548	120
576.6	118
576.652	128
576.705	126
576.757	120
576.809	116
576.861	114
576.913	118
576.965	116
577.018	120
577.07	108
577.122	116
577.174	112
577.226	104
577.279	116
577.331	114
577.383	100
577.435	112
577.487	104
577.539	100
577.592	94
577.644	110
577.696	96
577.748	94
577.8	90
577.852	110
577.905	102
577.957	110
578.009	106
578.061	108
578.113	112
578.165	94
578.218	92
578.27	112
578.322	100
578.374	106
578.426	88
578.478	100
578.531	96
578.583	90
578.635	88
578.687	98
578.739	96
578.791	98
578.844	92
578.896	88
578.948	98
579	102
579.052	88
579.104	102
579.157	98
579.209	110
579.261	106
579.313	98
579.365	100
579.417	94
579.47	92
579.522	90
579.574	106
579.626	108
579.678	104
579.73	102
579.782	104
579.835	106
579.887	102
579.939	102
579.991	112
580.043	112
580.095	102
580.148	98
580.2	110
580.252	100
580.304	104
580.356	98
580.408	100
580.46	98
580.513	98
580.565	106
580.617	100
580.669	98
580.721	96
580.773	102
580.826	104
580.878	102
580.93	98
580.982	96
581.034	106
581.086	104
581.138	118
581.191	92
581.243	108
581.295	110
581.347	112
581.399	96
581.451	124
581.503	110
581.556	104
581.608	106
581.66	114
581.712	116
581.764	108
581.816	100
581.868	108
581.92	112
581.973	112
582.025	100
582.077	104
582.129	106
582.181	102
582.233	110
582.285	126
582.338	112
582.39	120
582.442	114
582.494	114
582.546	112
582.598	112
582.65	98
582.703	122
582.755	114
582.807	116
582.859	116
582.911	116
582.963	104
583.015	118
583.067	108
583.12	112
583.172	118
583.224	134
583.276	108
583.328	124
583.38	130
583.432	110
583.484	116
583.537	120
583.589	122
583.641	120
583.693	108
583.745	124
583.797	126
583.849	118
583.901	124
583.953	122
584.006	116
584.058	126
584.11	122
584.162	122
584.214	136
584.266	126
584.318	120
584.37	126
584.423	144
584.475	134
584.527	130
584.579	122
584.631	136
584.683	134
584.735	142
584.787	130
584.839	124
584.892	140
584.944	138
584.996	136
585.048	140
585.1	138
585.152	132
585.204	134
585.256	140
585.308	136
585.361	142
585.413	132
585.465	142
585.517	144
585.569	144
585.621	122
585.673	136
585.725	140
585.777	142
585.83	140
585.882	158
585.934	140
585.986	146
586.038	144
586.09	156
586.142	144
586.194	146
586.246	134
586.298	154
586.351	148
586.403	154
586.455	146
586.507	152
586.559	150
586.611	144
586.663	142
586.715	150
586.767	166
586.819	148
586.872	148
586.924	142
586.976	148
587.028	142
587.08	152
587.132	158
587.184	148
587.236	158
587.288	154
587.34	148
587.392	154
587.445	150
587.497	146
587.549	148
587.601	162
587.653	150
587.705	158
587.757	154
587.809	150
587.861	152
587.913	158
587.965	150
588.018	162
588.07	162
588.122	164
588.174	162
588.226	164
588.278	156
588.33	164
588.382	156
588.434	162
588.486	156
588.538	172
588.59	146
588.642	180
588.695	166
588.747	168
588.799	166
588.851	168
588.903	150
588.955	164
589.007	156
589.059	172
589.111	182
589.163	178
589.215	182
589.267	182
589.319	184
589.372	178
589.424	164
589.476	192
589.528	188
589.58	194
589.632	158
589.684	180
589.736	186
589.788	186
589.84	176
589.892	188
589.944	182
589.996	184
590.048	168
590.101	186
590.153	180
590.205	166
590.257	184
590.309	164
590.361	176
590.413	186
590.465	174
590.517	156
590.569	172
590.621	164
590.673	160
590.725	184
590.777	166
590.829	176
590.881	152
590.933	160
590.986	170
591.038	168
591.09	170
591.142	162
591.194	160
591.246	172
591.298	164
591.35	162
591.402	162
591.454	154
591.506	146
591.558	140
591.61	150
591.662	140
591.714	148
591.766	136
591.818	146
591.87	148
591.923	152
591.975	146
592.027	148
592.079	142
592.131	144
592.183	146
592.235	150
592.287	142
592.339	148
592.391	128
592.443	140
592.495	144
592.547	144
592.599	130
592.651	142
592.703	152
592.755	144
592.807	132
592.859	152
592.911	138
592.963	146
593.015	128
593.068	156
593.12	136
593.172	148
593.224	156
593.276	142
593.328	126
593.38	140
593.432	128
593.484	140
593.536	136
593.588	118
593.64	122
593.692	146
593.744	140
593.796	150
593.848	128
593.9	148
593.952	158
594.004	158
594.056	134
594.108	138
594.16	156
594.212	146
594.264	128
594.316	154
594.368	140
594.42	158
594.472	122
594.524	156
594.576	138
594.628	136
594.68	152
594.732	150
594.784	150
594.837	150
594.889	146
594.941	138
594.993	146
595.045	136
595.097	144
595.149	138
595.201	146
595.253	152
595.305	150
595.357	146
595.409	152
595.461	152
595.513	140
595.565	150
595.617	134
595.669	160
595.721	142
595.773	134
595.825	148
595.877	154
595.929	140
595.981	142
596.033	150
596.085	152
596.137	140
596.189	152
596.241	150
596.293	146
596.345	152
596.397	162
596.449	166
596.501	154
596.553	160
596.605	156
596.657	178
596.709	166
596.761	174
596.813	160
596.865	168
596.917	158
596.969	150
597.021	142
597.073	160
597.125	138
597.177	146
597.229	126
597.281	138
597.333	136
597.385	128
597.437	130
597.489	146
597.541	146
597.593	148
597.645	144
597.697	142
597.749	150
597.801	138
597.853	124
597.905	142
597.957	152
598.009	158
598.061	134
598.113	134
598.165	148
598.217	134
598.269	132
598.321	144
598.373	152
598.425	138
598.477	142
598.529	138
598.581	140
598.633	130
598.685	130
598.737	138
598.789	144
598.841	146
598.893	138
598.945	140
598.997	142
599.049	138
599.101	134
599.153	146
599.205	140
599.257	148
599.309	144
599.361	152
599.413	150
599.465	146
599.517	134
599.569	136
599.62	140
599.672	154
599.724	146
599.776	128
599.828	142
599.88	158
599.932	116
599.984	144
600.036	130
600.088	150
600.14	144
600.192	130
600.244	148
600.296	138
600.348	138
600.4	138
600.452	140
600.504	146
600.556	152
600.608	136
600.66	152
600.712	136
600.764	142
600.816	142
600.868	140
600.92	150
600.972	148
601.024	142
601.076	156
601.128	140
601.18	146
601.232	142
601.284	140
601.335	138
601.387	134
601.439	134
601.491	146
601.543	150
601.595	142
601.647	142
601.699	142
601.751	146
601.803	156
601.855	140
601.907	146
601.959	144
602.011	136
602.063	134
602.115	140
602.167	130
602.219	130
602.271	148
602.323	142
602.375	146
602.427	154
602.478	138
602.53	134
602.582	140
602.634	152
602.686	142
602.738	140
602.79	146
602.842	152
602.894	136
602.946	144
602.998	152
603.05	144
603.102	146
603.154	140
603.206	130
603.258	140
603.31	132
603.362	148
603.413	148
603.465	138
603.517	138
603.569	136
603.621	142
603.673	140
603.725	144
603.777	134
603.829	158
603.881	136
603.933	146
603.985	144
604.037	150
604.089	154
604.141	142
604.193	150
604.244	166
604.296	138
604.348	146
604.4	142
604.452	148
604.504	160
604.556	134
604.608	134
604.66	150
604.712	144
604.764	154
604.816	150
604.868	144
604.92	152
604.971	150
605.023	140
605.075	150
605.127	124
605.179	142
605.231	150
605.283	164
605.335	166
605.387	144
605.439	136
605.491	150
605.543	144
605.594	146
605.646	162
605.698	150
605.75	150
605.802	146
605.854	132
605.906	158
605.958	142
606.01	158
606.062	136
606.114	132
606.166	160
606.217	160
606.269	148
606.321	146
606.373	138
606.425	154
606.477	152
606.529	146
606.581	158
606.633	146
606.685	142
606.737	146
606.789	148
606.84	152
606.892	142
606.944	148
606.996	136
607.048	144
607.1	154
607.152	136
607.204	158
607.256	156
607.308	134
607.359	146
607.411	154
607.463	148
607.515	142
607.567	142
607.619	154
607.671	152
607.723	150
607.775	154
607.827	160
607.878	150
607.93	146
607.982	154
608.034	142
608.086	166
608.138	154
608.19	138
608.242	158
608.294	146
608.345	136
608.397	150
608.449	150
608.501	142
608.553	148
608.605	148
608.657	164
608.709	154
608.761	152
608.812	146
608.864	158
608.916	150
608.968	154
609.02	158
609.072	162
609.124	148
609.176	160
609.228	136
609.279	142
609.331	154
609.383	150
609.435	158
609.487	156
609.539	156
609.591	166
609.643	146
609.694	154
609.746	158
609.798	146
609.85	146
609.902	154
609.954	150
610.006	162
610.058	142
610.109	160
610.161	152
610.213	154
610.265	144
610.317	140
610.369	156
610.421	170
610.473	150
610.524	156
610.576	152
610.628	150
610.68	150
610.732	170
610.784	164
610.836	168
610.887	156
610.939	150
610.991	168
611.043	158
611.095	164
611.147	154
611.199	150
611.25	152
611.302	152
611.354	160
611.406	164
611.458	148
611.51	152
611.562	158
611.614	150
611.665	174
611.717	150
611.769	158
611.821	162
611.873	164
611.925	144
611.977	144
612.028	158
612.08	160
612.132	170
612.184	158
612.236	168
612.288	162
612.339	158
612.391	162
612.443	150
612.495	166
612.547	172
612.599	146
612.651	174
612.702	166
612.754	150
612.806	152
612.858	164
612.91	162
612.962	166
613.013	158
613.065	172
613.117	168
613.169	168
613.221	150
613.273	172
613.325	170
613.376	160
613.428	162
613.48	178
613.532	160
613.584	160
613.635	162
613.687	164
613.739	170
613.791	174
613.843	158
613.895	176
613.947	176
613.998	174
614.05	164
614.102	168
614.154	168
614.206	184
614.258	164
614.309	174
614.361	178
614.413	166
614.465	162
614.517	166
614.568	168
614.62	166
614.672	164
614.724	178
614.776	170
614.828	176
614.879	170
614.931	170
614.983	172
615.035	170
615.087	174
615.139	172
615.19	170
615.242	180
615.294	176
615.346	192
615.398	174
615.449	166
615.501	174
615.553	170
615.605	168
615.657	164
615.709	174
615.76	180
615.812	186
615.864	176
615.916	168
615.968	168
616.019	174.009
616.071	181.871
616.123	169.898
616.175	178.325
616.227	184.554
616.278	189.029
616.33	184.151
616.382	177.096
616.434	183.87
616.486	177.285
616.537	179.78
616.589	172.246
616.641	183.437
616.693	182.339
616.745	172.269
616.797	191.758
616.848	182.367
616.9	173.951
616.952	171.088
617.004	171.622
617.056	178.791
617.107	176.719
617.159	186.721
617.211	176.147
617.263	175.258
617.315	180.424
617.366	181.365
617.418	173.39
617.47	190.128
617.522	181.052
617.573	164.427
617.625	175.505
617.677	172.923
617.729	186.616
617.781	164.783
617.832	179.232
617.884	176.389
617.936	187.159
617.988	190.518
618.04	180.974
618.091	179.39
618.143	187.798
618.195	174.411
618.247	180.5
618.299	183.514
618.35	186.645
618.402	182.286
618.454	177.231
618.506	185.65
618.557	187.285
618.609	173.423
618.661	180.679
618.713	188
618.765	182.617
618.816	191.904
618.868	181.088
618.92	190.95
618.972	190.168
619.023	175.891
619.075	172.147
619.127	189.334
619.179	188.07
619.231	185.564
619.282	187.529
619.334	187.278
619.386	191.476
619.438	173.703
619.49	183.209
619.541	184.686
619.593	184.976
619.645	193.901
619.697	186.252
619.748	188.473
619.8	195.145
619.852	181.757
619.904	181.232
619.955	185.838
620.007	186.324
620.059	187.372
620.111	184.441
620.162	187.966
620.214	202.736
620.266	196.758
620.318	188.072
620.37	192.814
620.421	191.627
620.473	189.484
620.525	189.667
620.577	193.693
620.628	185.571
620.68	184.489
620.732	176.582
620.784	187.938
620.835	202.745
620.887	196.092
620.939	188.521
620.991	190.822
621.042	191.977
621.094	181.626
621.146	172.818
621.198	180.396
621.249	184.86
621.269	184
621.321	180
621.373	166
621.425	202
621.477	182
621.529	196
621.581	184
621.633	198
621.685	192
621.737	194
621.789	188
621.841	188
621.893	198
621.945	194
621.997	174
622.049	180
622.101	184
622.153	190
622.205	168
622.257	198
622.309	184
622.361	196
622.413	188
622.465	182
622.517	186
622.569	182
622.621	200
622.673	196
622.725	206
622.776	206
622.828	184
622.88	202
622.932	190
622.984	192
623.036	204
623.088	190
623.14	206
623.192	206
623.244	200
623.296	194
623.348	174
623.4	194
623.452	194
623.504	178
623.556	186
623.608	188
623.66	188
623.712	200
623.764	192
623.816	200
623.868	194
623.92	192
623.972	204
624.024	194
624.076	200
624.128	184
624.18	206
624.232	196
624.284	190
624.336	192
624.388	200
624.44	186
624.492	198
624.544	196
624.596	192
624.648	210
624.699	198
624.751	194
624.803	200
624.855	212
624.907	192
624.959	190
625.011	204
625.063	186
625.115	188
625.167	174
625.219	198
625.271	204
625.323	202
625.375	200
625.427	196
625.479	194
625.531	206
625.583	184
625.635	200
625.687	198
625.739	198
625.791	206
625.843	202
625.895	208
625.946	202
625.998	190
626.05	192
626.102	210
626.154	206
626.206	184
626.258	194
626.31	202
626.362	204
626.414	210
626.466	206
626.518	198
626.57	212
626.622	188
626.674	194
626.726	208
626.778	200
626.83	200
626.882	194
626.934	202
626.985	206
627.037	190
627.089	198
627.141	212
627.193	204
627.245	196
627.297	200
627.349	204
627.401	194
627.453	204
627.505	206
627.557	214
627.609	206
627.661	198
627.713	216
627.765	206
627.817	210
627.868	200
627.92	190
627.972	216
628.024	200
628.076	204
628.128	214
628.18	228
628.232	202
628.284	220
628.336	198
628.388	200
628.44	210
628.492	212
628.544	206
628.596	214
628.647	220
628.699	206
628.751	208
628.803	212
628.855	226
628.907	196
628.959	210
629.011	236
629.063	206
629.115	198
629.167	192
629.219	222
629.271	202
629.322	202
629.374	202
629.426	214
629.478	228
629.53	222
629.582	210
629.634	220
629.686	208
629.738	216
629.79	202
629.842	220
629.894	222
629.945	226
629.997	206
630.049	228
630.101	222
630.153	222
630.205	220
630.257	224
630.309	222
630.361	210
630.413	214
630.465	222
630.517	210
630.568	234
630.62	210
630.672	206
630.724	228
630.776	212
630.828	220
630.88	226
630.932	242
630.984	220
631.036	214
631.088	220
631.14	220
631.191	222
631.243	224
631.295	216
631.347	216
631.399	228
631.451	218
631.503	216
631.555	234
631.607	234
631.659	236
631.71	222
631.762	214
631.814	236
631.866	214
631.918	216
631.97	226
632.022	230
632.074	224
632.126	224
632.178	244
632.229	250
632.281	250
632.333	244
632.385	226
632.437	232
632.489	220
632.541	230
632.593	236
632.645	244
632.696	230
632.748	236
632.8	248
632.852	252
632.904	246
632.956	236
633.008	230
633.06	244
633.112	232
633.164	228
633.215	246
633.267	236
633.319	250
633.371	226
633.423	238
633.475	224
633.527	238
633.579	232
633.63	258
633.682	256
633.734	256
633.786	250
633.838	256
633.89	232
633.942	248
633.994	232
634.046	248
634.097	262
634.149	264
634.201	240
634.253	238
634.305	234
634.357	268
634.409	244
634.461	244
634.512	252
634.564	262
634.616	238
634.668	246
634.72	252
634.772	278
634.824	248
634.876	260
634.927	272
634.979	250
635.031	256
635.083	260
635.135	266
635.187	262
635.239	260
635.291	272
635.342	266
635.394	292
635.446	262
635.498	260
635.55	270
635.602	276
635.654	272
635.705	282
635.757	262
635.809	262
635.861	274
635.913	282
635.965	280
636.017	296
636.068	286
636.12	288
636.172	278
636.224	302
636.276	276
636.328	294
636.38	286
636.431	284
636.483	306
636.535	308
636.587	298
636.639	322
636.691	302
636.743	302
636.794	324
636.846	340
636.898	312
636.95	334
637.002	338
637.054	346
637.106	362
637.157	326
637.209	374
637.261	348
637.313	352
637.365	336
637.417	358
637.469	366
637.52	358
637.572	364
637.624	360
637.676	394
637.728	364
637.78	384
637.831	386
637.883	360
637.935	382
637.987	384
638.039	368
638.091	372
638.143	374
638.194	382
638.246	382
638.298	346
638.35	354
638.402	358
638.454	370
638.505	352
638.557	360
638.609	348
638.661	366
638.713	360
638.765	352
638.816	344
638.868	360
638.92	356
638.972	344
639.024	336
639.076	328
639.127	352
639.179	348
639.231	348
639.283	330
639.335	302
639.387	320
639.438	316
639.49	310
639.542	342
639.594	328
639.646	326
639.698	328
639.749	320
639.801	310
639.853	336
639.905	324
639.957	328
640.008	310
640.06	304
640.112	326
640.164	308
640.216	332
640.268	298
640.319	292
640.371	304
640.423	320
640.475	314
640.527	302
640.578	312
640.63	304
640.682	304
640.734	308
640.786	312
640.838	316
640.889	312
640.941	304
640.993	298
641.045	320
641.097	302
641.148	302
641.2	314
641.252	310
641.304	302
641.356	296
641.408	292
641.459	298
641.511	296
641.563	292
641.615	312
641.667	298
641.718	312
641.77	306
641.822	298
641.874	306
641.926	298
641.977	294
642.029	310
642.081	306
642.133	302
642.185	304
642.236	304
642.288	310
642.34	306
642.392	296
642.444	300
642.495	308
642.547	290
642.599	292
642.651	318
642.703	302
642.754	304
642.806	300
642.858	324
642.91	306
642.962	312
643.013	286
643.065	306
643.117	308
643.169	298
643.221	290
643.272	310
643.324	292
643.376	310
643.428	312
643.479	278
643.531	310
643.583	312
643.635	296
643.687	306
643.738	324
643.79	326
643.842	306
643.894	304
643.946	308
643.997	304
644.049	322
644.101	306
644.153	304
644.205	300
644.256	310
644.308	306
644.36	302
644.412	320
644.463	302
644.515	304
644.567	304
644.619	308
644.671	306
644.722	306
644.774	320
644.826	318
644.878	280
644.929	310
644.981	316
645.033	310
645.085	314
645.136	320
645.188	324
645.24	306
645.292	308
645.344	326
645.395	334
645.447	308
645.499	302
645.551	294
645.602	328
645.654	316
645.706	318
645.758	302
645.81	310
645.861	300
645.913	320
645.965	308
646.017	328
646.068	324
646.12	304
646.172	304
646.224	330
646.275	312
646.327	326
646.379	322
646.431	318
646.482	332
646.534	314
646.586	316
646.638	316
646.689	318
646.741	322
646.793	336
646.845	326
646.896	328
646.948	322
647	328
647.052	324
647.104	330
647.155	326
647.207	306
647.259	316
647.31	334
647.362	338
647.414	338
647.466	310
647.518	340
647.569	328
647.621	318
647.673	322
647.724	320
647.776	336
647.828	324
647.88	326
647.931	312
647.983	320
648.035	312
648.087	318
648.138	328
648.19	338
648.242	350
648.294	324
648.345	340
648.397	314
648.449	346
648.501	330
648.552	338
648.604	308
648.656	336
648.708	326
648.759	340
648.811	336
648.863	326
648.915	316
648.966	366
649.018	344
649.07	328
649.121	330
649.173	356
649.225	332
649.277	340
649.328	314
649.38	330
649.432	340
649.484	344
649.535	350
649.587	360
649.639	358
649.69	340
649.742	330
649.794	348
649.846	324
649.897	334
649.949	328
650.001	340
650.053	348
650.104	354
650.156	332
650.208	350
650.259	360
650.311	344
650.363	340
650.415	352
650.466	348
650.518	358
650.57	340
650.621	334
650.673	362
650.725	372
650.777	346
650.828	344
650.88	338
650.932	366
650.984	340
651.035	368
651.087	358
651.139	376
651.19	350
651.242	366
651.294	352
651.345	354
651.397	348
651.449	362
651.501	350
651.552	332
651.604	372
651.656	352
651.707	372
651.759	368
651.811	376
651.863	362
651.914	362
651.966	376
652.018	372
652.069	366
652.121	358
652.173	360
652.224	364
652.276	342
652.328	356
652.38	360
652.431	378
652.483	358
652.535	370
652.586	376
652.638	380
652.69	374
652.741	354
652.793	362
652.845	374
652.897	376
652.948	388
653	370
653.052	374
653.103	350
653.155	380
653.207	358
653.258	370
653.31	384
653.362	376
653.413	376
653.465	372
653.517	372
653.568	378
653.62	380
653.672	392
653.724	374
653.775	384
653.827	382
653.879	386
653.93	372
653.982	404
654.034	394
654.085	368
654.137	376
654.189	370
654.24	384
654.292	376
654.344	376
654.395	382
654.447	402
654.499	376
654.55	402
654.602	382
654.654	394
654.705	396
654.757	392
654.809	396
654.86	384
654.912	414
654.964	390
655.016	386
655.067	410
655.119	414
655.17	390
655.222	394
655.274	394
655.326	390
655.377	398
655.429	400
655.481	414
655.532	416
655.584	402
655.635	410
655.687	410
655.739	392
655.79	410
655.842	416
655.894	440
655.945	418
655.997	416
656.049	422
656.1	416
656.152	404
656.204	408
656.255	428
656.307	408
656.359	416
656.41	428
656.462	438
656.514	420
656.565	432
656.617	436
656.669	426
656.72	436
656.772	438
656.824	420
656.875	412
656.927	422
656.979	424
657.03	432
657.082	406
657.134	424
657.185	420
657.237	440
657.288	442
657.34	432
657.392	430
657.443	434
657.495	422
657.547	444
657.598	416
657.65	466
657.702	446
657.753	446
657.805	464
657.857	434
657.908	428
657.96	434
658.011	456
658.063	442
658.115	446
658.166	442
658.218	448
658.27	444
658.321	414
658.373	428
658.425	438
658.476	440
658.528	436
658.579	442
658.631	442
658.683	460
658.734	432
658.786	434
658.838	438
658.889	458
658.941	458
658.992	468
659.044	452
659.096	446
659.147	444
659.199	466
659.251	448
659.302	474
659.354	460
659.406	454
659.457	474
659.509	458
659.56	430
659.612	432
659.664	432
659.715	454
659.767	454
659.818	448
659.87	464
659.922	434
659.973	474
660.025	448
660.077	436
660.128	444
660.18	450
660.231	454
660.283	472
660.335	460
660.386	450
660.438	422
660.49	438
660.541	434
660.593	444
660.644	464
660.696	436
660.748	454
660.799	448
660.851	448
660.902	470
660.954	432
661.006	446
661.057	432
661.109	456
661.16	464
661.212	440
661.264	436
661.315	440
661.367	448
661.418	472
661.47	456
661.522	438
661.573	438
661.625	450
661.676	448
661.728	454
661.78	452
661.831	462
661.883	440
661.934	448
661.986	464
662.038	422
662.089	462
662.141	464
662.192	440
662.244	460
662.296	450
662.347	442
662.399	450
662.45	462
662.502	440
662.554	452
662.605	460
662.657	452
662.708	458
662.76	450
662.811	460
662.863	462
662.915	456
662.966	418
663.018	460
663.069	454
663.121	422
663.173	454
663.224	478
663.276	438
663.327	464
663.379	460
663.43	430
663.482	440
663.534	454
663.585	444
663.637	466
663.688	454
663.74	446.188
663.792	456.005
663.843	448.071
663.895	447.688
663.946	434.394
663.998	441.308
664.049	447.785
664.101	447.703
664.153	439.392
664.204	457.238
664.256	470.045
664.307	448.784
664.359	455.465
664.41	451.388
664.462	446.531
664.513	428.947
664.565	457.89
664.617	447.2
664.668	450.706
664.72	459.859
664.771	442.252
664.823	444.082
664.874	460.859
664.926	459.399
664.978	447.918
665.029	452.239
665.081	441.405
665.132	426.026
665.184	451.13
665.235	453.033
665.287	460.659
665.339	463.033
665.39	455.065
665.442	454.562
665.493	449.161
665.545	441.89
665.596	442.071
665.648	446.8
665.699	456.354
665.751	455.641
665.802	447.704
665.854	451.334
665.906	465.375
665.957	451.711
666.009	444.416
666.06	440.071
666.112	439.859
666.163	447.892
666.215	448.397
666.266	445.467
666.318	447.459
666.37	448.814
666.421	452.153
666.473	448.449
666.524	449.627
666.576	454.468
666.627	437.239
666.679	445.305
666.73	454.312
666.782	452.43
666.833	458.792
666.885	453.611
666.937	442.99
666.988	437.507
667.04	449.805
667.091	450.209
667.143	447.503
667.194	452.877
667.246	455.24
667.297	452.867
667.349	452.193
667.4	450.248
667.452	448.101
667.503	450.513
667.555	457.115
667.607	461.836
667.658	462.172
667.71	475.125
667.761	458.743
667.813	455.787
667.864	454.376
667.916	452.937
667.967	450.699
668.019	459.564
668.07	451.243
668.122	461.326
668.173	451.644
668.225	451.055
668.276	459.826
668.328	442.952
668.379	430.355
668.431	444.188
668.482	445.599
668.534	450.297
668.586	450.683
668.637	451.67
668.689	446.666
668.74	455.233
668.792	452.193
668.843	436.118
668.895	464.479
668.935	474
668.987	414
669.038	472
669.09	446
669.142	452
669.194	468
669.245	450
669.297	442
669.349	468
669.401	446
669.453	444
669.504	478
669.556	464
669.608	456
669.66	410
669.711	450
669.763	454
669.815	462
669.867	456
669.918	438
669.97	442
670.022	448
670.074	470
670.125	462
670.177	456
670.229	466
670.281	448
670.332	462
670.384	436
670.436	480
670.488	448
670.539	442
670.591	442
670.643	464
670.695	450
670.747	454
670.798	456
670.85	468
670.902	446
670.953	418
671.005	460
671.057	460
671.109	430
671.161	454
671.212	456
671.264	456
671.316	454
671.367	448
671.419	464
671.471	470
671.523	432
671.575	442
671.626	444
671.678	472
671.73	446
671.781	438
671.833	450
671.885	446
671.937	440
671.988	464
672.04	446
672.092	456
672.144	472
672.195	440
672.247	450
672.299	468
672.351	458
672.402	434
672.454	448
672.506	468
672.558	456
672.609	446
672.661	450
672.713	442
672.765	486
672.816	454
672.868	468
672.92	476
672.971	464
673.023	468
673.075	448
673.127	458
673.178	492
673.23	450
673.282	456
673.334	452
673.385	480
673.437	470
673.489	476
673.54	478
673.592	456
673.644	466
673.696	462
673.747	478
673.799	446
673.851	436
673.903	430
673.954	464
674.006	468
674.058	486
674.109	498
674.161	474
674.213	452
674.265	474
674.316	464
674.368	456
674.42	478
674.471	472
674.523	464
674.575	470
674.627	486
674.678	498
674.73	450
674.782	474
674.833	468
674.885	480
674.937	470
674.989	502
675.04	478
675.092	474
675.144	454
675.195	478
675.247	484
675.299	514
675.351	466
675.402	476
675.454	482
675.506	496
675.557	490
675.609	478
675.661	498
675.713	482
675.764	476
675.816	496
675.868	494
675.919	486
675.971	490
676.023	504
676.074	468
676.126	500
676.178	476
676.23	496
676.281	482
676.333	480
676.385	480
676.436	488
676.488	514
676.54	478
676.591	506
676.643	488
676.695	484
676.747	490
676.798	498
676.85	492
676.902	512
676.953	488
677.005	478
677.057	468
677.108	488
677.16	500
677.212	488
677.263	480
677.315	496
677.367	490
677.419	488
677.47	476
677.522	482
677.574	496
677.625	498
677.677	474
677.729	522
677.78	488
677.832	492
677.884	492
677.935	474
677.987	486
678.039	494
678.091	474
678.142	494
678.194	490
678.246	494
678.297	492
678.349	494
678.401	484
678.452	494
678.504	488
678.556	490
678.607	496
678.659	492
678.711	472
678.762	476
678.814	490
678.866	478
678.917	502
678.969	476
679.021	490
679.072	488
679.124	508
679.176	468
679.227	484
679.279	510
679.331	484
679.382	516
679.434	492
679.486	496
679.537	490
679.589	508
679.641	494
679.692	474
679.744	478
679.796	494
679.847	508
679.899	494
679.951	496
680.003	498
680.054	500
680.106	522
680.157	482
680.209	498
680.261	496
680.312	504
680.364	484
680.416	502
680.467	478
680.519	518
680.571	500
680.622	496
680.674	510
680.726	492
680.777	510
680.829	486
680.881	484
680.932	482
680.984	516
681.036	482
681.087	504
681.139	512
681.191	494
681.242	478
681.294	500
681.346	496
681.397	530
681.449	478
681.501	506
681.552	482
681.604	476
681.656	500
681.707	510
681.759	490
681.81	498
681.862	512
681.914	514
681.965	496
682.017	490
682.069	506
682.12	524
682.172	514
682.224	502
682.275	496
682.327	506
682.379	512
682.43	500
682.482	498
682.533	498
682.585	500
682.637	502
682.688	522
682.74	498
682.792	540
682.843	506
682.895	508
682.947	508
682.998	514
683.05	506
683.102	514
683.153	524
683.205	504
683.256	504
683.308	502
683.36	540
683.411	514
683.463	494
683.515	504
683.566	514
683.618	532
683.669	510
683.721	516
683.773	508
683.824	502
683.876	492
683.928	504
683.979	478
684.031	492
684.082	490
684.134	512
684.186	502
684.237	516
684.289	494
684.341	486
684.392	520
684.444	508
684.495	502
684.547	506
684.599	496
684.65	510
684.702	522
684.754	504
684.805	480
684.857	508
684.908	470
684.96	508
685.012	500
685.063	516
685.115	500
685.166	500
685.218	512
685.27	508
685.321	510
685.373	494
685.424	494
685.476	512
685.528	526
685.579	502
685.631	516
685.683	512
685.734	506
685.786	488
685.837	468
685.889	484
685.941	514
685.992	512
686.044	480
686.095	494
686.147	496
686.199	476
686.25	486
686.302	492
686.353	490
686.405	480
686.457	474
686.508	542
686.56	502
686.611	500
686.663	482
686.715	502
686.766	514
686.818	496
686.869	482
686.921	492
686.973	476
687.024	490
687.076	500
687.127	470
687.179	482
687.231	484
687.282	492
687.334	498
687.385	520
687.437	518
687.489	498
687.54	492
687.592	482
687.643	488
687.695	486
687.747	498
687.798	488
687.85	498
687.901	490
687.953	482
688.004	486
688.056	504
688.108	502
688.159	474
688.211	494
688.262	516
688.314	464
688.366	486
688.417	484
688.469	488
688.52	514
688.572	500
688.623	484
688.675	504
688.727	502
688.778	480
688.83	494
688.881	496
688.933	512
688.984	502
689.036	482
689.088	512
689.139	468
689.191	476
689.242	494
689.294	504
689.346	498
689.397	472
689.449	484
689.5	478
689.552	496
689.603	482
689.655	502
689.706	490
689.758	506
689.81	512
689.861	504
689.913	484
689.964	474
690.016	484
690.067	506
690.119	494
690.171	510
690.222	498
690.274	496
690.325	492
690.377	502
690.428	462
690.48	498
690.531	506
690.583	466
690.635	506
690.686	496
690.738	504
690.789	508
690.841	470
690.892	484
690.944	484
690.996	472
691.047	484
691.099	468
691.15	494
691.202	482
691.253	488
691.305	488
691.356	504
691.408	476
691.459	466
691.511	476
691.563	488
691.614	478
691.666	442
691.717	482
691.769	468
691.82	490
691.872	472
691.923	444
691.975	494
692.026	490
692.078	480
692.13	454
692.181	490
692.233	492
692.284	486
692.336	468
692.387	480
692.439	480
692.49	468
692.542	466
692.593	452
692.645	498
692.697	488
692.748	482
692.8	504
692.851	474
692.903	482
692.954	474
693.006	484
693.057	456
693.109	466
693.16	450
693.212	478
693.263	486
693.315	476
693.366	466
693.418	476
693.47	466
693.521	462
693.573	474
693.624	466
693.676	462
693.727	488
693.779	472
693.83	472
693.882	492
693.933	468
693.985	472
694.036	470
694.088	484
694.139	480
694.191	480
694.242	500
694.294	480
694.345	486
694.397	472
694.448	474
694.5	476
694.552	498
694.603	478
694.655	460
694.706	476
694.758	492
694.809	470
694.861	476
694.912	476
694.964	474
695.015	464
695.067	468
695.118	480
695.17	472
695.221	470
695.273	456
695.324	456
695.376	478
695.427	468
695.479	486
695.53	488
695.582	464
695.633	442
695.685	448
695.736	482
695.788	472
695.839	462
695.891	492
695.942	472
695.994	462
696.045	450
696.097	458
696.148	464
696.2	474
696.251	458
696.303	458
696.354	462
696.406	460
696.457	474
696.509	468
696.56	476
696.612	474
696.663	466
696.715	468
696.766	478
696.818	468
696.869	474
696.921	466
696.972	468
697.024	470
697.075	476
697.127	452
697.178	466
697.23	476
697.281	454
697.333	466
697.384	460
697.436	466
697.487	456
697.539	428
697.59	462
697.642	474
697.693	480
697.745	458
697.796	460
697.847	472
697.899	462
697.95	450
698.002	446
698.053	474
698.105	474
698.156	458
698.208	452
698.259	460
698.311	456
698.362	464
698.414	426
698.465	474
698.517	446
698.568	454
698.62	438
698.671	458
698.723	452
698.774	464
698.826	456
698.877	442
698.928	474
698.98	450
699.031	456
699.083	450
699.134	444
699.186	442
699.237	438
699.289	448
699.34	450
699.392	456
699.443	462
699.495	442
699.546	452
699.598	446
699.649	452
699.7	460
699.752	436
699.803	450
699.855	452
699.906	458
699.958	454
700.009	442
700.061	452
700.112	426
700.164	452
700.215	442
700.266	424
700.318	444
700.369	432
700.421	458
700.472	444
700.524	422
700.575	444
700.627	420
700.678	442
700.73	420
700.781	460
700.832	448
700.884	442
700.935	462
700.987	450
701.038	428
701.09	452
701.141	434
701.193	434
701.244	440
701.295	446
701.347	458
701.398	454
701.45	468
701.501	456
701.553	434
701.604	452
701.656	452
701.707	416
701.758	444
701.81	440
701.861	452
701.913	448
701.964	460
702.016	456
702.067	434
702.119	432
702.17	446
702.221	446
702.273	444
702.324	436
702.376	416
702.427	436
702.479	450
702.53	446
702.581	440
702.633	448
702.684	450
702.736	442
702.787	438
702.839	462
702.89	448
702.941	448
702.993	424
703.044	432
703.096	452
703.147	440
703.199	450
703.25	440
703.301	466
703.353	410
703.404	448
703.456	424
703.507	450
703.558	442
703.61	440
703.661	438
703.713	444
703.764	450
703.816	438
703.867	448
703.918	456
703.97	442
704.021	420
704.073	438
704.124	450
704.175	434
704.227	426
704.278	456
704.33	440
704.381	448
704.432	434
704.484	440
704.535	452
704.587	442
704.638	422
704.69	438
704.741	452
704.792	444
704.844	454
704.895	432
704.947	462
704.998	442
705.049	424
705.101	448
705.152	438
705.204	446
705.255	436
705.306	424
705.358	418
705.409	440
705.461	414
705.512	444
705.563	438
705.615	436
705.666	406
705.718	420
705.769	418
705.82	430
705.872	422
705.923	442
705.974	426
706.026	440
706.077	426
706.129	436
706.18	430
706.231	418
706.283	424
706.334	440
706.386	418
706.437	418
706.488	420
706.54	424
706.591	416
706.643	406
706.694	422
706.745	422
706.797	432
706.848	426
706.899	400
706.951	436
707.002	406
707.054	420
707.105	390
707.156	408
707.208	408
707.259	428
707.31	382
707.362	400
707.413	442
707.465	438
707.516	402
707.567	436
707.619	416
707.67	426
707.721	412
707.773	408
707.824	420
707.876	422
707.927	416
707.978	420
708.03	424
708.081	428
708.132	410
708.184	432
708.235	410
708.287	420
708.338	416
708.389	408
708.441	428
708.492	410
708.543	412
708.595	406
708.646	426
708.697	424
708.749	418
708.8	416
708.852	420
708.903	426
708.954	406
709.006	396
709.057	422
709.108	412
709.16	408
709.211	428
709.262	412
709.314	410
709.365	428
709.416	392
709.468	400
709.519	416
709.57	414
709.622	396
709.673	428
709.725	426
709.776	416
709.827	398
709.879	414
709.93	398
709.981	398
710.033	394
710.084	412
710.135	414
710.187	404
710.238	410
710.289	412
710.341	398
710.392	410
710.443	410
710.495	378
710.546	416
710.597	408
710.649	400
710.7	410
710.751	406
710.803	418
710.854	394
710.905	388
710.957	414
711.008	408
711.059	412
711.111	398
711.162	424
711.213	390
711.265	396.168
711.316	417.711
711.367	409.824
711.419	415.467
711.47	394.701
711.521	403.123
711.573	411.636
711.624	422.598
711.675	417.183
711.727	395.238
711.778	399.597
711.829	412.612
711.881	400.776
711.932	408.636
711.983	403.164
712.035	406.085
712.086	408.137
712.137	401.167
712.189	404.001
712.24	399.319
712.291	415.212
712.343	407.554
712.394	397.912
712.445	389.417
712.496	392.543
712.548	403.549
712.599	403.11
712.65	393.316
712.702	401.102
712.753	398.935
712.804	399.024
712.856	385.882
712.907	402.283
712.958	398.363
713.01	389.901
713.061	384.185
713.112	394.467
713.164	379.894
713.215	385.602
713.266	394.817
713.317	407.36
713.369	375.613
713.42	394.093
713.471	379.626
713.523	376.876
713.574	384.82
713.625	387.683
713.677	391.767
713.728	399.299
713.779	387.674
713.831	391.462
713.882	379.603
713.933	389.832
713.984	389.683
714.036	390.738
714.087	386.335
714.138	375.373
714.19	374.491
714.241	386.009
714.292	393.559
714.343	387.077
714.395	382.667
714.446	389.049
714.497	377.832
714.549	382.223
714.6	379.871
714.651	368.829
714.703	392.069
714.754	382.848
714.805	371.54
714.856	360.721
714.908	381.033
714.959	376.367
715.01	374.98
715.062	384.102
715.113	376.387
715.164	383.318
715.215	394.363
715.267	376.155
715.318	381.102
715.369	384.324
715.421	385.274
715.472	385.569
715.523	377.672
715.574	388.275
715.626	393.174
715.677	383.267
715.728	377.148
715.779	377.327
715.831	373.523
715.882	378.696
715.933	377.129
715.985	372.843
716.036	364.208
716.087	372.418
716.138	375.755
716.19	383.969
716.241	384.987
716.292	383.466
716.343	364.596
716.395	377.873
716.433	348
716.485	374
716.536	376
716.588	352
716.639	368
716.691	368
716.742	366
716.794	384
716.845	370
716.897	358
716.948	364
717	370
717.052	366
717.103	368
717.155	356
717.206	378
717.258	360
717.309	380
717.361	352
717.412	358
717.464	362
717.515	378
717.567	358
717.618	344
717.67	354
717.721	358
717.773	372
717.824	382
717.876	370
717.927	358
717.979	368
718.03	360
718.082	364
718.133	368
718.185	360
718.237	362
718.288	340
718.34	350
718.391	364
718.443	370
718.494	364
718.546	348
718.597	372
718.649	354
718.7	372
718.752	360
718.803	378
718.855	372
718.906	358
718.958	356
719.009	348
719.061	352
719.112	364
719.164	356
719.215	366
719.267	350
719.318	364
719.37	344
719.421	364
719.473	344
719.524	358
719.576	360
719.627	356
719.679	344
719.73	358
719.782	352
719.833	362
719.885	352
719.936	368
719.988	362
720.039	346
720.091	354
720.142	352
720.194	330
720.245	358
720.297	358
720.348	352
720.4	360
720.451	350
720.503	340
720.554	348
720.606	342
720.657	370
720.709	340
720.76	338
720.812	360
720.863	346
720.915	356
720.966	338
721.018	340
721.069	344
721.121	330
721.172	362
721.224	326
721.275	336
721.327	356
721.378	336
721.43	322
721.481	348
721.532	342
721.584	356
721.635	334
721.687	344
721.738	356
721.79	342
721.841	322
721.893	338
721.944	336
721.996	338
722.047	334
722.099	336
722.15	328
722.202	320
722.253	346
722.305	340
722.356	346
722.408	328
722.459	332
722.511	348
722.562	316
722.614	330
722.665	356
722.716	340
722.768	348
722.819	332
722.871	354
722.922	336
722.974	346
723.025	342
723.077	332
723.128	320
723.18	338
723.231	330
723.283	332
723.334	332
723.386	332
723.437	320
723.488	306
723.54	328
723.591	336
723.643	324
723.694	318
723.746	332
723.797	330
723.849	336
723.9	320
723.952	328
724.003	336
724.055	338
724.106	328
724.157	336
724.209	322
724.26	330
724.312	316
724.363	348
724.415	336
724.466	344
724.518	318
724.569	348
724.621	302
724.672	322
724.723	318
724.775	332
724.826	336
724.878	312
724.929	324
724.981	320
725.032	328
725.084	316
725.135	320
725.187	328
725.238	332
725.289	316
725.341	322
725.392	316
725.444	312
725.495	300
725.547	326
725.598	312
725.65	310
725.701	326
725.752	302
725.804	298
725.855	328
725.907	314
725.958	322
726.01	322
726.061	312
726.112	318
726.164	326
726.215	316
726.267	310
726.318	312
726.37	322
726.421	320
726.473	308
726.524	320
726.575	320
726.627	322
726.678	314
726.73	312
726.781	330
726.833	290
726.884	292
726.935	320
726.987	312
727.038	312
727.09	300
727.141	308
727.193	318
727.244	320
727.295	310
727.347	320
727.398	316
727.45	306
727.501	306
727.552	308
727.604	326
727.655	306
727.707	320
727.758	314
727.81	314
727.861	314
727.912	310
727.964	320
728.015	302
728.067	298
728.118	312
728.17	322
728.221	304
728.272	312
728.324	304
728.375	320
728.427	308
728.478	306
728.529	294
728.581	310
728.632	306
728.684	306
728.735	308
728.786	300
728.838	296
728.889	300
728.941	310
728.992	280
729.044	294
729.095	304
729.146	298
729.198	318
729.249	296
729.301	306
729.352	290
729.403	302
729.455	296
729.506	298
729.558	276
729.609	300
729.66	282
729.712	304
729.763	280
729.815	290
729.866	298
729.917	276
729.969	294
730.02	304
730.072	296
730.123	294
730.174	298
730.226	290
730.277	304
730.329	290
730.38	284
730.431	292
730.483	290
730.534	274
730.586	280
730.637	278
730.688	296
730.74	278
730.791	288
730.842	292
730.894	286
730.945	268
730.997	290
731.048	296
731.099	288
731.151	280
731.202	282
731.254	286
731.305	292
731.356	274
731.408	286
731.459	286
731.51	288
731.562	276
731.613	272
731.665	270
731.716	282
731.767	270
731.819	296
731.87	286
731.922	284
731.973	274
732.024	288
732.076	288
732.127	274
732.178	264
732.23	278
732.281	276
732.333	282
732.384	282
732.435	280
732.487	260
732.538	266
732.589	278
732.641	292
732.692	270
732.744	268
732.795	280
732.846	276
732.898	276
732.949	282
733	286
733.052	266
733.103	282
733.154	280
733.206	286
733.257	272
733.309	272
733.36	286
733.411	272
733.463	282
733.514	266
733.565	272
733.617	268
733.668	272
733.719	272
733.771	286
733.822	274
733.873	272
733.925	276
733.976	292
734.028	274
734.079	292
734.13	288
734.182	270
734.233	272
734.284	288
734.336	256
734.387	272
734.438	282
734.49	280
734.541	278
734.592	272
734.644	280
734.695	286
734.747	280
734.798	270
734.849	274
734.901	282
734.952	270
735.003	272
735.055	276
735.106	268
735.157	292
735.209	262
735.26	278
735.311	282
735.363	272
735.414	274
735.465	278
735.517	268
735.568	278
735.619	256
735.671	264
735.722	266
735.773	284
735.825	272
735.876	296
735.927	278
735.979	278
736.03	286
736.081	278
736.133	272
736.184	282
736.235	276
736.287	292
736.338	268
736.389	286
736.441	258
736.492	262
736.543	278
736.595	284
736.646	264
736.697	294
736.749	280
736.8	282
736.851	268
736.903	282
736.954	264
737.005	272
737.057	278
737.108	288
737.159	252
737.211	286
737.262	290
737.313	284
737.365	286
737.416	280
737.467	286
737.518	282
737.57	284
737.621	282
737.672	284
737.724	294
737.775	276
737.826	274
737.878	282
737.929	262
737.98	270
738.032	280
738.083	284
738.134	290
738.186	286
738.237	292
738.288	270
738.339	278
738.391	272
738.442	286
738.493	280
738.545	286
738.596	284
738.647	292
738.699	278
738.75	264
738.801	286
738.853	284
738.904	256
738.955	270
739.006	266
739.058	264
739.109	250
739.16	284
739.212	274
739.263	282
739.314	266
739.366	272
739.417	276
739.468	252
739.519	282
739.571	262
739.622	258
739.673	268
739.725	276
739.776	254
739.827	274
739.878	258
739.93	268
739.981	260
740.032	266
740.084	274
740.135	272
740.186	272
740.237	260
740.289	258
740.34	268
740.391	264
740.443	268
740.494	264
740.545	248
740.596	276
740.648	272
740.699	254
740.75	246
740.802	262
740.853	240
740.904	254
740.956	264
741.007	242
741.058	270
741.109	244
741.161	266
741.212	266
741.263	248
741.314	260
741.366	254
741.417	252
741.468	250
741.52	256
741.571	264
741.622	258
741.673	264
741.725	264
741.776	252
741.827	262
741.878	228
741.93	258
741.981	260
742.032	256
742.083	260
742.135	252
742.186	246
742.237	254
742.289	256
742.34	258
742.391	250
742.442	250
742.494	244
742.545	256
742.596	238
742.647	258
742.699	248
742.75	254
742.801	240
742.852	248
742.904	260
742.955	232
743.006	238
743.057	246
743.109	236
743.16	238
743.211	260
743.263	244
743.314	258
743.365	260
743.416	250
743.468	250
743.519	228
743.57	242
743.621	240
743.672	254
743.724	238
743.775	236
743.826	254
743.878	252
743.929	242
743.98	234
744.031	238
744.083	252
744.134	244
744.185	260
744.236	248
744.287	224
744.339	250
744.39	252
744.441	240
744.492	240
744.544	256
744.595	254
744.646	228
744.697	246
744.749	228
744.8	246
744.851	244
744.902	234
744.954	242
745.005	240
745.056	234
745.107	222
745.159	242
745.21	226
745.261	232
745.312	254
745.363	238
745.415	222
745.466	246
745.517	232
745.568	246
745.62	236
745.671	244
745.722	232
745.773	252
745.824	226
745.876	230
745.927	232
745.978	228
746.029	234
746.081	246
746.132	248
746.183	250
746.234	234
746.285	240
746.337	220
746.388	244
746.439	224
746.49	234
746.542	244
746.593	240
746.644	226
746.695	242
746.746	230
746.798	240
746.849	218
746.9	240
746.951	234
747.003	228
747.054	236
747.105	218
747.156	242
747.207	232
747.259	236
747.31	220
747.361	220
747.412	248
747.463	224
747.515	238
747.566	226
747.617	226
747.668	228
747.719	220
747.771	222
747.822	228
747.873	222
747.924	232
747.975	216
748.027	232
748.078	236
748.129	218
748.18	206
748.231	248
748.283	220
748.334	232
748.385	214
748.436	220
748.487	214
748.539	226
748.59	234
748.641	238
748.692	222
748.743	236
748.795	226
748.846	218
748.897	228
748.948	232
748.999	226
749.05	238
749.102	220
749.153	214
749.204	228
749.255	224
749.306	222
749.358	224
749.409	198
749.46	224
749.511	224
749.562	212
749.614	200
749.665	230
749.716	238
749.767	216
749.818	214
749.869	224
749.921	234
749.972	230
750.023	202
750.074	212
750.125	220
750.177	232
750.228	226
750.279	204
750.33	208
750.381	228
750.432	222
750.484	216
750.535	228
750.586	232
750.637	214
750.688	220
750.739	224
750.791	222
750.842	224
750.893	218
750.944	208
750.995	226
751.046	220
751.098	230
751.149	222
751.2	214
751.251	218
751.302	210
751.353	214
751.404	232
751.456	208
751.507	214
751.558	216
751.609	214
751.66	204
751.711	202
751.763	222
751.814	218
751.865	218
751.916	210
751.967	226
752.018	216
752.07	212
752.121	214
752.172	214
752.223	210
752.274	218
752.325	214
752.376	224
752.428	214
752.479	218
752.53	196
752.581	214
752.632	204
752.683	218
752.734	212
752.786	218
752.837	208
752.888	204
752.939	216
752.99	222
753.041	216
753.092	204
753.144	202
753.195	224
753.246	216
753.297	236
753.348	196
753.399	210
753.45	208
753.502	210
753.553	206
753.604	200
753.655	220
753.706	198
753.757	192
753.808	206
753.859	204
753.911	206
753.962	204
754.013	200
754.064	190
754.115	198
754.166	212
754.217	196
754.269	202
754.32	212
754.371	188
754.422	194
754.473	194
754.524	200
754.575	192
754.626	212
754.678	196
754.729	208
754.78	206
754.831	190
754.882	198
754.933	212
754.984	180
755.035	214
755.086	198
755.138	220
755.189	196
755.24	210
755.291	192
755.342	210
755.393	190
755.444	206
755.495	208
755.547	208
755.598	206
755.649	198
755.7	200
755.751	206
755.802	190
755.853	196
755.904	200
755.955	206
756.006	192
756.058	192
756.109	188
756.16	224
756.211	196
756.262	204
756.313	198
756.364	198
756.415	202
756.466	194
756.518	200
756.569	196
756.62	184
756.671	178
756.722	172
756.773	200
756.824	190
756.875	188
756.926	174
756.977	184
757.029	196
757.08	210
757.131	186
757.182	200
757.233	200
757.284	196
757.335	190
757.386	190
757.437	186
757.488	186
757.539	184
757.59	184
757.642	194
757.693	196
757.744	192
757.795	208
757.846	180
757.897	204
757.948	192
757.999	184
758.05	192
758.101	184
758.152	170
758.203	176
758.255	206
758.306	184
758.357	184
758.408	186
758.459	186
758.51	190.007
758.561	186.222
758.612	180.428
758.663	214.783
758.714	182.116
758.765	184.127
758.816	187.693
758.867	192.303
758.919	184.545
758.97	196.838
759.021	187.493
759.072	192.78
759.123	186.599
759.174	178.322
759.225	173.542
759.276	186
759.327	193.031
759.378	182.005
759.429	184.514
759.48	188.438
759.531	174.363
759.582	174.529
759.633	189.785
759.685	176.618
759.736	183.02
759.787	189.809
759.838	179.869
759.889	192.146
759.94	184.074
759.991	177.704
760.042	178.768
760.093	186.058
760.144	183.199
760.195	185.343
760.246	174.663
760.297	183.16
760.348	174.147
760.399	189.655
760.45	191.177
760.501	185.371
760.552	175.57
760.603	163.709
760.655	167
760.706	181.089
760.757	177.012
760.808	171.228
760.859	173.523
760.91	180.878
760.961	184.525
761.012	181.118
761.063	173.108
761.114	178.991
761.165	182.779
761.216	175.669
761.267	181.042
761.318	168.009
761.369	172.253
761.42	162.902
761.471	177.353
761.522	179.236
761.573	168.712
761.624	174.582
761.675	185.405
761.726	173.955
761.777	172.658
761.828	160.716
761.88	179.433
761.931	172.403
761.982	184.777
762.033	175.244
762.084	182.212
762.135	175.953
762.186	174.756
762.237	166.278
762.288	170.079
762.339	172.688
762.39	184.825
762.441	169.308
762.492	173.863
762.543	179.935
762.594	183.258
762.645	170.446
762.696	166.615
762.747	176.165
762.798	170.284
762.849	165.885
762.9	177.15
762.951	168.627
763.002	170.653
763.053	166.579
763.104	155.794
763.155	163.375
763.206	170.704
763.257	169.78
763.308	174.311
763.359	177.471
763.41	178.324
763.461	164.22
763.512	166.705
763.563	171.134
763.614	170.299
763.665	174.47
763.678	176
763.729	174
763.78	176
763.832	160
763.883	162
763.934	172
763.986	172
764.037	166
764.088	162
764.139	166
764.191	168
764.242	166
764.293	176
764.345	166
764.396	174
764.447	164
764.498	170
764.55	164
764.601	160
764.652	174
764.704	166
764.755	172
764.806	172
764.857	158
764.909	162
764.96	170
765.011	160
765.062	172
765.114	156
765.165	160
765.216	162
765.268	152
765.319	162
765.37	148
765.421	156
765.473	182
765.524	168
765.575	152
765.626	160
765.678	172
765.729	152
765.78	150
765.831	168
765.883	166
765.934	160
765.985	176
766.036	160
766.088	154
766.139	168
766.19	160
766.242	156
766.293	164
766.344	152
766.395	160
766.447	152
766.498	166
766.549	164
766.6	146
766.652	148
766.703	170
766.754	164
766.805	166
766.857	164
766.908	168
766.959	146
767.01	148
767.062	160
767.113	166
767.164	168
767.215	158
767.267	150
767.318	162
767.369	170
767.42	166
767.472	150
767.523	166
767.574	144
767.625	152
767.677	150
767.728	158
767.779	156
767.83	162
767.882	158
767.933	158
767.984	152
768.035	168
768.087	160
768.138	154
768.189	158
768.24	154
768.292	150
768.343	150
768.394	162
768.445	158
768.497	150
768.548	146
768.599	162
768.65	150
768.701	144
768.753	154
768.804	154
768.855	156
768.906	158
768.958	130
769.009	152
769.06	142
769.111	162
769.163	162
769.214	156
769.265	148
769.316	156
769.367	152
769.419	136
769.47	156
769.521	152
769.572	162
769.624	140
769.675	162
769.726	140
769.777	148
769.828	140
769.88	154
769.931	156
769.982	146
770.033	158
770.085	156
770.136	150
770.187	150
770.238	142
770.289	152
770.341	146
770.392	130
770.443	150
770.494	148
770.546	146
770.597	150
770.648	138
770.699	150
770.75	156
770.802	148
770.853	150
770.904	142
770.955	158
771.006	160
771.058	150
771.109	152
771.16	144
771.211	144
771.263	138
771.314	146
771.365	144
771.416	134
771.467	138
771.519	138
771.57	146
771.621	150
771.672	154
771.723	156
771.775	140
771.826	134
771.877	150
771.928	148
771.979	148
772.031	138
772.082	144
772.133	134
772.184	130
772.235	152
772.287	136
772.338	140
772.389	144
772.44	140
772.491	140
772.543	140
772.594	148
772.645	146
772.696	144
772.747	136
772.799	144
772.85	134
772.901	128
772.952	146
773.003	144
773.055	140
773.106	142
773.157	148
773.208	158
773.259	140
773.31	140
773.362	142
773.413	136
773.464	150
773.515	140
773.566	134
773.618	136
773.669	136
773.72	142
773.771	136
773.822	144
773.873	158
773.925	138
773.976	146
774.027	128
774.078	140
774.129	124
774.18	136
774.232	148
774.283	144
774.334	124
774.385	136
774.436	132
774.488	130
774.539	136
774.59	132
774.641	132
774.692	132
774.743	136
774.795	136
774.846	134
774.897	130
774.948	134
774.999	132
775.05	126
775.102	138
775.153	134
775.204	140
775.255	146
775.306	134
775.357	144
775.409	128
775.46	128
775.511	136
775.562	136
775.613	118
775.664	142
775.716	144
775.767	138
775.818	134
775.869	130
775.92	132
775.971	132
776.023	132
776.074	112
776.125	132
776.176	128
776.227	128
776.278	128
776.329	122
776.381	132
776.432	122
776.483	122
776.534	128
776.585	136
776.636	138
776.688	128
776.739	128
776.79	128
776.841	118
776.892	138
776.943	136
776.994	124
777.046	126
777.097	124
777.148	138
777.199	136
777.25	130
777.301	130
777.352	130
777.404	132
777.455	112
777.506	130
777.557	142
777.608	124
777.659	126
777.71	120
777.762	130
777.813	138
777.864	138
777.915	136
777.966	124
778.017	126
778.068	126
778.12	120
778.171	124
778.222	134
778.273	130
778.324	112
778.375	112
778.426	126
778.477	134
778.529	122
778.58	108
778.631	126
778.682	122
778.733	120
778.784	122
778.835	118
778.886	122
778.938	128
778.989	116
779.04	128
779.091	126
779.142	118
779.193	118
779.244	124
779.295	120
779.347	116
779.398	128
779.449	110
779.5	128
779.551	124
779.602	120
779.653	116
779.704	134
779.755	128
779.807	112
779.858	122
779.909	124
779.96	126
780.011	104
780.062	118
780.113	130
780.164	124
780.216	126
780.267	122
780.318	126
780.369	120
780.42	118
780.471	118
780.522	112
780.573	108
780.624	128
780.675	114
780.727	124
780.778	116
780.829	110
780.88	120
780.931	108
780.982	112
781.033	120
781.084	118
781.135	116
781.187	120
781.238	122
781.289	122
781.34	118
781.391	130
781.442	106
781.493	108
781.544	106
781.595	118
781.646	108
781.698	112
781.749	110
781.8	110
781.851	112
781.902	124
781.953	116
782.004	124
782.055	112
782.106	114
782.157	116
782.208	116
782.26	96
782.311	100
782.362	102
782.413	110
782.464	108
782.515	114
782.566	110
782.617	112
782.668	116
782.719	104
782.77	110
782.821	108
782.872	120
782.924	100
782.975	120
783.026	118
783.077	120
783.128	104
783.179	108
783.23	102
783.281	110
783.332	112
783.383	114
783.434	118
783.485	104
783.536	102
783.588	116
783.639	118
783.69	116
783.741	104
783.792	108
783.843	108
783.894	112
783.945	112
783.996	88
784.047	100
784.098	104
784.149	112
784.2	102
784.252	106
784.303	114
784.354	102
784.405	120
784.456	106
784.507	102
784.558	108
784.609	104
784.66	108
784.711	110
784.762	106
784.813	102
784.864	106
784.915	100
784.966	108
785.017	110
785.068	94
785.12	104
785.171	108
785.222	116
785.273	110
785.324	104
785.375	106
785.426	104
785.477	100
785.528	110
785.579	108
785.63	94
785.681	106
785.732	110
785.783	112
785.834	106
785.885	102
785.936	108
785.987	104
786.038	96
786.089	104
786.141	116
786.192	106
786.243	118
786.294	114
786.345	106
786.396	104
786.447	104
786.498	100
786.549	96
786.6	100
786.651	104
786.702	98
786.753	96
786.804	104
786.855	98
786.906	104
786.957	100
787.008	106
787.059	106
787.11	100
787.161	92
787.212	112
787.263	102
787.314	106
787.365	98
787.416	96
787.467	100
787.518	98
787.57	96
787.621	104
787.672	96
787.723	96
787.774	90
787.825	104
787.876	104
787.927	100
787.978	104
788.029	94
788.08	106
788.131	104
788.182	96
788.233	86
788.284	114
788.335	92
788.386	90
788.437	90
788.488	102
788.539	96
788.59	112
788.641	100
788.692	98
788.743	108
788.794	98
788.845	90
788.896	90
788.947	106
788.998	92
789.049	90
789.1	102
789.151	110
789.202	86
789.253	96
789.304	106
789.355	100
789.406	100
789.457	94
789.508	96
789.559	100
789.61	100
789.661	78
789.712	94
789.763	94
789.814	88
789.865	100
789.916	100
789.967	98
790.018	98
790.069	98
790.12	92
790.171	98
790.222	98
790.273	98
790.324	86
790.375	102
790.426	90
790.477	98
790.528	96
790.579	110
790.63	90
790.681	90
790.732	84
790.783	104
790.834	92
790.885	96
790.936	98
790.987	94
791.038	96
791.089	84
791.14	90
791.191	88
791.242	86
791.293	96
791.344	86
791.395	94
791.446	92
791.497	86
791.548	88
791.599	98
791.65	94
791.701	92
791.752	88
791.803	92
791.854	92
791.905	104
791.956	96
792.007	82
792.058	90
792.109	88
792.16	98
792.211	86
792.262	104
792.313	84
792.363	94
792.414	92
792.465	94
792.516	96
792.567	96
792.618	88
792.669	98
792.72	92
792.771	90
792.822	88
792.873	92
792.924	84
792.975	90
793.026	94
793.077	92
793.128	84
793.179	98
793.23	84
793.281	92
793.332	82
793.383	84
793.434	88
793.485	104
793.536	90
793.587	92
793.638	88
793.689	84
793.74	94
793.79	92
793.841	74
793.892	82
793.943	88
793.994	90
794.045	88
794.096	90
794.147	92
794.198	90
794.249	86
794.3	84
794.351	90
794.402	86
794.453	90
794.504	90
794.555	92
794.606	90
794.657	90
794.708	84
794.758	90
794.809	86
794.86	94
794.911	78
794.962	92
795.013	72
795.064	86
795.115	90
795.166	98
795.217	82
795.268	88
795.319	84
795.37	88
795.421	78
795.472	80
795.523	74
795.573	82
795.624	78
795.675	92
795.726	78
795.777	96
795.828	82
795.879	90
795.93	78
795.981	94
796.032	80
796.083	98
796.134	88
796.185	96
796.236	80
796.286	84
796.337	82
796.388	80
796.439	66
796.49	92
796.541	76
796.592	90
796.643	68
796.694	86
796.745	82
796.796	86
796.847	76
796.897	86
796.948	82
796.999	84
797.05	82
797.101	72
797.152	74
797.203	82
797.254	86
797.305	88
797.356	80
797.407	84
797.458	68
797.508	86
797.559	82
797.61	84
797.661	98
797.712	70
797.763	80
797.814	66
797.865	86
797.916	86
797.967	82
798.018	74
798.068	78
798.119	80
798.17	82
798.221	78
798.272	74
798.323	78
798.374	74
798.425	76
798.476	84
798.526	66
798.577	84
798.628	76
798.679	78
798.73	84
798.781	80
798.832	76
798.883	86
798.934	80
798.984	76
799.035	78
799.086	78
799.137	76
799.188	70
799.239	78
799.29	86
799.341	72
799.392	78
799.443	88
799.493	80
799.544	76
799.595	82
799.646	80
799.697	70
799.748	66
799.799	80
799.85	76
799.9	80
799.951	72
800.002	64
800.053	80
800.104	68
800.155	72
800.206	66
800.257	72
800.307	74
800.358	84
800.409	62
800.46	76
800.511	78
800.562	74
800.613	84
800.664	80
800.714	66
800.765	84
800.816	72
800.867	82
800.918	76
800.969	74
801.02	60
801.07	78
801.121	76
801.172	76
801.223	82
801.274	66
801.325	66
801.376	78
801.427	86
801.477	74
801.528	80
801.579	76
801.63	72
801.681	80
801.732	72
801.783	64
801.833	70
801.884	72
801.935	72
801.986	70
802.037	68
802.088	78
802.139	66
802.189	72
802.24	68
802.291	78
802.342	78
802.393	70
802.444	60
802.495	70
802.545	64
802.596	60
802.647	64
802.698	68
802.749	80
802.8	68
802.85	74
802.901	70
802.952	70
803.003	70
803.054	80
803.105	62
803.155	74
803.206	76
803.257	80
803.308	68
803.359	76
803.41	74
803.46	82
803.511	68
803.562	76
803.613	68
803.664	70
803.715	76
803.765	68
803.816	66
803.867	76
803.918	68
803.969	72
804.02	68
804.07	62
804.121	70
804.172	64
804.223	66
804.274	82
804.325	66
804.375	70
804.426	62
804.477	58
804.528	74
804.579	62
804.63	68
804.68	68
804.731	66
804.782	64
804.833	72
804.884	72
804.934	76
804.985	68
805.036	72
805.087	62
805.138	60
805.188	68
805.239	72
805.29	58
805.341	78
805.392	62
805.443	68
805.493	66.0016
805.544	75.9312
805.595	68
805.646	77.5972
805.697	67.9374
805.747	65.987
805.798	69.3093
805.849	67.5687
805.9	60.9383
805.951	62.7783
806.001	72.7647
806.052	63.7745
806.103	68.8299
806.154	79.4288
806.205	65.7153
806.255	70.2778
806.306	65.1761
806.357	71.1633
806.408	62.1287
806.459	69.2531
806.509	59.7218
806.56	76.2119
806.611	62.5882
806.662	68.4585
806.713	68.7301
806.763	65
806.814	71.0438
806.865	64.6597
806.916	68.2787
806.967	64.5017
807.017	63.7808
807.068	65.5294
807.119	56.6213
807.17	68.6274
807.22	60.6017
807.271	60.9213
807.322	68.0368
807.373	63.6271
807.424	65.0755
807.474	63.549
807.525	68.323
807.576	64.084
807.627	60.8531
807.678	56.8248
807.728	65.1186
807.779	65.6291
807.83	60.3758
807.881	66.3832
807.931	60.9927
807.982	66.2543
808.033	67.938
808.084	55.0705
808.135	67.8965
808.185	69.0269
808.236	58.443
808.287	59.356
808.338	74.5666
808.388	61.5105
808.439	65.0281
808.49	65.5
808.541	64.0072
808.591	59.5882
808.642	59.8275
808.693	60.7609
808.744	62.9665
808.795	68.8122
808.845	62.248
808.896	60.7133
808.947	68.2557
808.998	61.1576
809.048	59.4271
809.099	60.4776
809.15	67.588
809.201	67.4536
809.251	67.4937
809.302	60.0619
809.353	60.8385
809.404	57.6775
809.454	65.4232
809.505	62.1742
809.556	58.9262
809.607	66.7905
809.658	62.8645
809.708	67.9922
809.759	62.8005
809.81	63.9519
809.861	67.0233
809.911	62.9822
809.962	60.0519
810.013	66.2694
810.064	61.5464
810.114	58.5835
810.165	63.7136
810.216	67.9518
810.267	63.0585
810.317	55.9345
810.368	67.1097
810.419	64.3992
810.469	65.1451
810.52	65.902
810.571	56.9664
810.622	57.8345
810.627	58
810.678	64
810.729	46
810.78	56
810.831	62
810.882	60
810.933	60
810.984	60
811.035	66
811.086	62
811.137	58
811.188	60
811.239	60
811.29	60
811.341	54
811.392	64
811.443	58
811.494	74
811.545	62
811.596	52
811.648	56
811.699	64
811.75	56
811.801	54
811.852	56
811.903	64
811.954	58
812.005	60
812.056	58
812.107	56
812.158	52
812.209	52
812.26	62
812.311	64
812.362	48
812.413	62
812.464	66
812.515	56
812.566	64
812.617	58
812.668	54
812.719	54
812.77	48
812.821	44
812.872	50
812.923	58
812.974	62
813.025	56
813.076	62
813.127	64
813.178	60
813.229	58
813.28	56
813.331	58
813.382	66
813.433	60
813.484	56
813.535	66
813.586	60
813.637	60
813.688	54
813.739	64
813.79	70
813.841	56
813.892	54
813.943	72
813.994	58
814.045	58
814.096	50
814.147	52
814.198	66
814.249	56
814.3	56
814.351	66
814.402	62
814.453	54
814.504	54
814.555	58
814.606	68
814.657	58
814.708	66
814.759	64
814.81	66
814.861	60
814.912	50
814.963	60
815.014	66
815.065	60
815.116	56
815.167	58
815.217	54
815.268	54
815.319	54
815.37	54
815.421	60
815.472	48
815.523	56
815.574	62
815.625	52
815.676	50
815.727	58
815.778	62
815.829	58
815.88	60
815.931	56
815.982	64
816.033	60
816.084	56
816.135	62
816.186	58
816.237	70
816.288	60
816.339	60
816.39	68
816.441	58
816.492	54
816.543	58
816.594	62
816.645	60
816.696	50
816.747	54
816.798	62
816.849	56
816.9	40
816.951	56
817.001	54
817.052	60
817.103	66
817.154	60
817.205	54
817.256	56
817.307	48
817.358	56
817.409	58
817.46	66
817.511	62
817.562	52
817.613	62
817.664	60
817.715	58
817.766	48
817.817	52
817.868	60
817.919	58
817.97	52
818.021	52
818.071	60
818.122	54
818.173	60
818.224	52
818.275	54
818.326	50
818.377	48
818.428	54
818.479	62
818.53	60
818.581	36
818.632	58
818.683	64
818.734	52
818.785	44
818.836	36
818.887	56
818.938	56
818.988	54
819.039	48
819.09	66
819.141	50
819.192	56
819.243	48
819.294	52
819.345	62
819.396	44
819.447	64
819.498	54
819.549	60
819.6	52
819.651	48
819.702	58
819.753	58
819.803	48
819.854	52
819.905	62
819.956	50
820.007	54
820.058	60
820.109	56
820.16	64
820.211	58
820.262	48
820.313	50
820.364	60
820.415	44
820.465	60
820.516	54
820.567	60
820.618	54
820.669	52
820.72	52
820.771	56
820.822	48
820.873	56
820.924	46
820.975	52
821.026	54
821.076	52
821.127	54
821.178	50
821.229	56
821.28	38
821.331	58
821.382	58
821.433	50
821.484	54
821.535	46
821.586	52
821.637	54
821.687	46
821.738	56
821.789	52
821.84	44
821.891	56
821.942	52
821.993	48
822.044	56
822.095	50
822.146	56
822.196	62
822.247	54
822.298	50
822.349	48
822.4	52
822.451	50
822.502	44
822.553	42
822.604	60
822.655	60
822.706	52
822.756	50
822.807	50
822.858	58
822.909	42
822.96	42
823.011	52
823.062	52
823.113	50
823.164	46
823.214	52
823.265	58
823.316	48
823.367	46
823.418	48
823.469	54
823.52	50
823.571	46
823.622	50
823.672	52
823.723	46
823.774	42
823.825	54
823.876	56
823.927	48
823.978	54
824.029	48
824.08	60
824.13	46
824.181	52
824.232	56
824.283	52
824.334	48
824.385	52
824.436	52
824.487	60
824.537	52
824.588	44
824.639	56
824.69	50
824.741	42
824.792	38
824.843	48
824.893	52
824.944	46
824.995	44
825.046	38
825.097	60
825.148	52
825.199	48
825.25	50
825.3	54
825.351	54
825.402	46
825.453	56
825.504	46
825.555	56
825.606	52
825.657	44
825.707	54
825.758	50
825.809	36
825.86	42
825.911	50
825.962	50
826.013	38
826.063	46
826.114	60
826.165	54
826.216	44
826.267	38
826.318	48
826.369	60
826.419	44
826.47	44
826.521	54
826.572	42
826.623	32
826.674	44
826.725	46
826.775	44
826.826	40
826.877	48
826.928	58
826.979	44
827.03	58
827.08	52
827.131	42
827.182	48
827.233	44
827.284	42
827.335	54
827.386	44
827.436	40
827.487	46
827.538	48
827.589	54
827.64	40
827.691	48
827.741	56
827.792	54
827.843	54
827.894	42
827.945	48
827.996	50
828.046	50
828.097	34
828.148	52
828.199	50
828.25	46
828.301	44
828.351	48
828.402	52
828.453	48
828.504	46
828.555	48
828.606	36
828.656	46
828.707	46
828.758	52
828.809	56
828.86	54
828.911	46
828.961	50
829.012	46
829.063	40
829.114	46
829.165	40
829.216	48
829.266	48
829.317	48
829.368	40
829.419	52
829.47	46
829.52	50
829.571	46
829.622	48
829.673	48
829.724	46
829.774	40
829.825	50
829.876	58
829.927	28
829.978	44
830.029	48
830.079	42
830.13	48
830.181	36
830.232	48
830.283	48
830.333	40
830.384	42
830.435	50
830.486	48
830.537	48
830.587	42
830.638	46
830.689	54
830.74	42
830.791	48
830.841	48
830.892	46
830.943	36
830.994	38
831.045	44
831.095	50
831.146	52
831.197	42
831.248	48
831.299	46
831.349	44
831.4	50
831.451	44
831.502	54
831.553	50
831.603	44
831.654	46
831.705	54
831.756	42
831.807	52
831.857	50
831.908	58
831.959	46
832.01	44
832.061	50
832.111	40
832.162	46
832.213	38
832.264	46
832.315	56
832.365	50
832.416	48
832.467	50
832.518	44
832.568	44
832.619	44
832.67	42
832.721	42
832.772	48
832.822	38
832.873	52
832.924	48
832.975	44
833.025	52
833.076	44
833.127	56
833.178	38
833.229	46
833.279	38
833.33	46
833.381	54
833.432	44
833.482	46
833.533	58
833.584	44
833.635	46
833.685	42
833.736	50
833.787	44
833.838	36
833.889	44
833.939	56
833.99	50
834.041	46
834.092	46
834.142	38
834.193	46
834.244	48
834.295	44
834.345	48
834.396	44
834.447	46
834.498	44
834.548	46
834.599	46
834.65	42
834.701	40
834.751	40
834.802	48
834.853	50
834.904	42
834.954	46
835.005	52
835.056	44
835.107	36
835.157	46
835.208	46
835.259	44
835.31	32
835.36	46
835.411	52
835.462	40
835.513	40
835.563	44
835.614	42
835.665	38
835.716	38
835.766	52
835.817	48
835.868	40
835.919	46
835.969	50
836.02	40
836.071	44
836.122	44
836.172	48
836.223	48
836.274	56
836.325	42
836.375	42
836.426	48
836.477	42
836.528	44
836.578	42
836.629	46
836.68	44
836.73	36
836.781	46
836.832	52
836.883	48
836.933	38
836.984	36
837.035	46
837.086	48
837.136	46
837.187	40
837.238	50
837.288	42
837.339	38
837.39	38
837.441	42
837.491	42
837.542	50
837.593	40
837.643	50
837.694	40
837.745	42
837.796	40
837.846	48
837.897	44
837.948	38
837.999	52
838.049	36
838.1	48
838.151	40
838.201	46
838.252	54
838.303	36
838.354	44
838.404	38
838.455	40
838.506	36
838.556	40
838.607	40
838.658	46
838.708	44
838.759	36
838.81	42
838.861	48
838.911	44
838.962	44
839.013	42
839.063	46
839.114	38
839.165	36
839.216	40
839.266	38
839.317	44
839.368	32
839.418	44
839.469	50
839.52	38
839.57	40
839.621	36
839.672	42
839.722	44
839.773	40
839.824	44
839.875	40
839.925	44
839.976	38
840.027	44
840.077	46
840.128	40
840.179	44
840.229	36
840.28	46
840.331	36
840.381	34
840.432	42
840.483	48
840.534	48
840.584	38
840.635	34
840.686	48
840.736	44
840.787	46
840.838	34
840.888	32
840.939	46
840.99	36
841.04	34
841.091	42
841.142	46
841.192	40
841.243	40
841.294	44
841.344	38
841.395	42
841.446	42
841.496	36
841.547	48
841.598	40
841.648	40
841.699	36
841.75	54
841.8	38
841.851	38
841.902	32
841.952	44
842.003	42
842.054	36
842.104	42
842.155	46
842.206	34
842.256	30
842.307	42
842.358	46
842.408	48
842.459	36
842.51	32
842.56	50
842.611	44
842.662	36
842.712	40
842.763	38
842.814	42
842.864	38
842.915	36
842.966	52
843.016	38
843.067	32
843.118	40
843.168	38
843.219	48
843.269	40
843.32	34
843.371	40
843.421	42
843.472	38
843.523	34
843.573	40
843.624	48
843.675	38
843.725	38
843.776	46
843.827	34
843.877	30
843.928	38
843.979	40
844.029	50
844.08	36
844.13	40
844.181	38
844.232	44
844.282	36
844.333	34
844.384	40
844.434	50
844.485	44
844.536	32
844.586	46
844.637	40
844.687	40
844.738	30
844.789	42
844.839	40
844.89	44
844.941	36
844.991	34
845.042	36
845.092	42
845.143	42
845.194	36
845.244	42
845.295	36
845.346	40
845.396	34
845.447	38
845.497	36
845.548	30
845.599	38
845.649	42
845.7	38
845.75	38
845.801	30
845.852	44
845.902	40
845.953	38
846.004	36
846.054	46
846.105	36
846.155	42
846.206	34
846.257	42
846.307	42
846.358	32
846.409	34
846.459	42
846.51	48
846.56	36
846.611	36
846.661	40
846.712	44
846.763	32
846.813	38
846.864	42
846.915	38
846.965	36
847.016	36
847.066	36
847.117	42
847.168	32
847.218	42
847.269	46
847.319	34
847.37	28
847.421	32
847.471	32
847.522	38
847.572	34
847.623	32
847.674	46
847.724	38
847.775	36
847.825	36
847.876	44
847.926	42
847.977	38
848.028	34
848.078	34
848.129	42
848.179	36
848.23	46
848.281	38
848.331	46
848.382	40
848.432	36
848.483	38
848.534	38
848.584	32
848.635	32
848.685	22
848.736	36
848.786	42
848.837	32
848.888	36
848.938	38
848.989	44
849.039	36
849.09	28
849.14	42
849.191	40
849.242	28
849.292	38
849.343	40
849.393	40
849.444	34
849.494	30
849.545	40
849.596	36
849.646	30
849.697	30
849.747	38
849.798	40
849.848	32
849.899	36
849.95	50
850	44
850.051	38
850.101	32
850.152	38
850.202	40
850.253	32
850.303	32
850.354	44
850.405	34
850.455	36
850.506	32
850.556	42
850.607	32
850.657	36
850.708	34
850.758	36
850.809	42
850.86	32
850.91	22
850.961	34
851.011	40
851.062	38
851.112	28
851.163	40
851.213	36
851.264	28
851.314	38
851.365	38
851.416	38
851.466	34
851.517	28
851.567	40
851.618	36
851.668	34
851.719	36
851.769	38
851.82	38
851.87	34
851.921	28
851.971	40
852.022	34
852.073	30
852.123	36
852.174	42
852.224	46
852.275	32
852.325	39.9809
852.376	28.2108
852.426	42.0433
852.477	33.862
852.527	40.688
852.578	36.3292
852.628	45.4806
852.679	31.7063
852.729	30.3326
852.78	35.81
852.831	34.4094
852.881	30.2515
852.932	30.009
852.982	32.2467
853.033	42.8261
853.083	30.93
853.134	35.6894
853.184	37.9546
853.235	36.7138
853.285	38.1977
853.336	36.6502
853.386	36.0755
853.437	34.45
853.487	30.5638
853.538	33.0712
853.588	36.1557
853.639	32.839
853.689	34.4867
853.74	27.3574
853.79	30.989
853.841	43.9848
853.891	36.1535
853.942	30.3406
853.992	33.7993
854.043	37.422
854.093	36.8084
854.144	27.5227
854.194	34.0792
854.245	37.8824
854.295	37.0239
854.346	33.4613
854.396	39.308
854.447	36.2105
854.497	36.26
854.548	24.9734
854.598	34.7016
854.649	43.0638
854.699	27.9249
854.75	35.621
854.8	36.4893
854.851	36.0146
854.901	40.3734
854.952	34.2
855.002	33.8019
855.053	34.6074
855.103	34.0935
855.154	32.87
855.204	36.0182
855.255	36.5808
855.305	42.9768
855.356	30.6367
855.406	34.5783
855.457	36.0603
855.507	33.08
855.558	31.7129
855.608	36.5255
855.659	38.9899
855.709	39.423
855.76	29.7135
855.81	34.0789
855.861	37.478
855.911	33.0439
855.962	28.7594
856.012	31.7243
856.063	33.3744
856.113	37.0525
856.164	31.2097
856.214	31.5371
856.265	33.1242
856.315	34.0992
856.366	32.2078
856.416	36.061
856.467	37.9
856.517	38.4136
856.568	32.7386
856.618	30.148
856.668	34.7821
856.719	37.75
856.769	31.0307
856.82	27.9071
856.87	33.6889
856.921	34.7582
856.971	34.5956
857.022	32.7971
857.072	36.6705
857.123	35.1942
857.173	30.28
857.224	29.1301
857.274	32.7135
857.325	39.8421
857.352	42
857.403	32
857.453	32
857.504	42
857.555	32
857.606	30
857.656	34
857.707	36
857.758	42
857.809	36
857.859	38
857.91	50
857.961	34
858.012	36
858.063	30
858.113	30
858.164	32
858.215	34
858.266	32
858.316	40
858.367	36
858.418	28
858.469	30
858.519	34
858.57	38
858.621	34
858.672	26
858.722	44
858.773	34
858.824	44
858.875	34
858.925	32
858.976	28
859.027	32
859.078	26
859.128	36
859.179	36
859.23	40
859.281	26
859.331	40
859.382	32
859.433	40
859.483	28
859.534	32
859.585	36
859.636	38
859.686	26
859.737	32
859.788	36
859.839	36
859.889	28
859.94	38
859.991	28
860.042	34
860.092	30
860.143	30
860.194	36
860.245	32
860.295	30
860.346	30
860.397	40
860.447	36
860.498	32
860.549	36
860.6	38
860.65	30
860.701	30
860.752	34
860.802	34
860.853	42
860.904	30
860.955	34
861.005	36
861.056	38
861.107	30
861.158	30
861.208	34
861.259	34
861.31	34
861.36	32
861.411	42
861.462	38
861.513	32
861.563	30
861.614	36
861.665	38
861.715	40
861.766	30
861.817	40
861.868	32
861.918	28
861.969	30
862.02	42
862.07	38
862.121	34
862.172	30
862.223	42
862.273	32
862.324	38
862.375	24
862.425	36
862.476	34
862.527	32
862.577	22
862.628	38
862.679	28
862.73	40
862.78	16
862.831	34
862.882	32
862.932	28
862.983	30
863.034	36
863.084	26
863.135	42
863.186	30
863.237	36
863.287	32
863.338	34
863.389	28
863.439	36
863.49	34
863.541	34
863.591	30
863.642	34
863.693	34
863.744	28
863.794	28
863.845	38
863.896	38
863.946	40
863.997	34
864.048	30
864.098	36
864.149	32
864.2	24
864.25	38
864.301	30
864.352	40
864.402	30
864.453	36
864.504	34
864.555	30
864.605	30
864.656	28
864.707	28
864.757	36
864.808	26
864.859	26
864.909	42
864.96	30
865.011	26
865.061	32
865.112	30
865.163	36
865.213	30
865.264	34
865.315	38
865.365	34
865.416	28
865.467	22
865.517	38
865.568	38
865.619	36
865.669	30
865.72	32
865.771	28
865.821	24
865.872	24
865.923	40
865.973	36
866.024	34
866.075	34
866.125	40
866.176	34
866.227	34
866.277	30
866.328	34
866.379	38
866.429	36
866.48	30
866.531	42
866.581	36
866.632	34
866.683	26
866.733	34
866.784	36
866.835	28
866.885	24
866.936	42
866.987	32
867.037	32
867.088	32
867.138	38
867.189	32
867.24	32
867.29	28
867.341	32
867.392	32
867.442	42
867.493	30
867.544	36
867.594	36
867.645	28
867.696	26
867.746	34
867.797	38
867.848	34
867.898	36
867.949	30
867.999	30
868.05	30
868.101	24
868.151	36
868.202	30
868.253	40
868.303	26
868.354	22
868.405	32
868.455	34
868.506	36
868.556	30
868.607	36
868.658	38
868.708	26
868.759	28
868.81	36
868.86	34
868.911	30
868.961	30
869.012	32
869.063	32
869.113	32
869.164	26
869.215	36
869.265	26
869.316	38
869.367	28
869.417	32
869.468	36
869.518	38
869.569	32
869.62	36
869.67	32
869.721	40
869.771	24
869.822	34
869.873	32
869.923	32
869.974	32
870.025	40
870.075	32
870.126	36
870.176	30
870.227	32
870.278	38
870.328	36
870.379	28
870.43	38
870.48	36
870.531	40
870.581	18
870.632	40
870.683	34
870.733	32
870.784	24
870.834	38
870.885	34
870.936	44
870.986	24
871.037	26
871.087	38
871.138	32
871.189	22
871.239	32
871.29	28
871.34	38
871.391	26
871.442	28
871.492	34
871.543	28
871.593	28
871.644	34
871.695	40
871.745	36
871.796	26
871.846	32
871.897	34
871.948	32
871.998	32
872.049	36
872.099	40
872.15	30
872.201	30
872.251	24
872.302	26
872.352	30
872.403	32
872.453	30
872.504	34
872.555	36
872.605	30
872.656	30
872.706	34
872.757	36
872.808	30
872.858	20
872.909	32
872.959	36
873.01	40
873.06	34
873.111	36
873.162	32
873.212	26
873.263	36
873.313	30
873.364	36
873.415	30
873.465	32
873.516	40
873.566	36
873.617	30
873.667	28
873.718	32
873.769	34
873.819	30
873.87	30
873.92	34
873.971	36
874.021	40
874.072	18
874.123	32
874.173	36
874.224	28
874.274	20
874.325	38
874.375	34
874.426	32
874.477	30
874.527	24
874.578	30
874.628	26
874.679	20
874.729	36
874.78	34
874.83	34
874.881	26
874.932	36
874.982	28
875.033	34
875.083	26
875.134	36
875.184	36
875.235	38
875.285	26
875.336	36
875.387	32
875.437	34
875.488	28
875.538	38
875.589	32
875.639	40
875.69	32
875.74	26
875.791	40
875.841	36
875.892	32
875.943	28
875.993	32
876.044	36
876.094	24
876.145	28
876.195	40
876.246	34
876.296	24
876.347	26
876.397	38
876.448	34
876.499	28
876.549	36
876.6	44
876.65	32
876.701	28
876.751	28
876.802	38
876.852	34
876.903	28
876.953	26
877.004	36
877.054	38
877.105	36
877.155	26
877.206	32
877.257	32
877.307	30
877.358	28
877.408	36
877.459	24
877.509	30
877.56	26
877.61	34
877.661	36
877.711	32
877.762	30
877.812	42
877.863	30
877.913	32
877.964	24
878.014	30
878.065	36
878.115	30
878.166	24
878.216	36
878.267	32
878.318	34
878.368	18
878.419	28
878.469	30
878.52	32
878.57	28
878.621	38
878.671	28
878.722	44
878.772	28
878.823	32
878.873	34
878.924	26
878.974	24
879.025	40
879.075	28
879.126	40
879.176	30
879.227	32
879.277	30
879.328	36
879.378	30
879.429	40
879.479	38
879.53	38
879.58	30
879.631	36
879.681	38
879.732	28
879.782	34
879.833	40
879.883	28
879.934	36
879.984	24
880.035	26
880.085	40
880.136	34
880.186	30
880.237	32
880.287	32
880.338	32
880.388	30
880.439	30
880.489	38
880.54	34
880.59	30
880.641	26
880.691	36
880.742	38
880.792	36
880.842	28
880.893	32
880.943	34
880.994	30
881.044	26
881.095	32
881.145	34
881.196	30
881.246	24
881.297	36
881.347	28
881.398	28
881.448	28
881.499	28
881.549	38
881.6	36
881.65	30
881.701	36
881.751	30
881.802	30
881.852	30
881.902	36
881.953	32
882.003	32
882.054	26
882.104	36
882.155	26
882.205	36
882.256	24
882.306	36
882.357	34
882.407	24
882.458	22
882.508	44
882.559	36
882.609	34
882.659	24
882.71	22
882.76	40
882.811	34
882.861	18
882.912	34
882.962	38
883.013	34
883.063	28
883.114	34
883.164	36
883.214	34
883.265	32
883.315	28
883.366	32
883.416	44
883.467	26
883.517	30
883.568	36
883.618	30
883.669	26
883.719	32
883.769	34
883.82	42
883.87	28
883.921	30
883.971	40
884.022	24
884.072	24
884.123	36
884.173	38
884.223	36
884.274	30
884.324	32
884.375	42
884.425	36
884.476	26
884.526	26
884.577	38
884.627	32
884.677	26
884.728	38
884.778	40
884.829	34
884.879	28
884.93	34
884.98	40
885.03	36
885.081	26
885.131	26
885.182	38
885.232	24
885.283	28
885.333	20
885.383	28
885.434	34
885.484	42
885.535	24
885.585	38
885.635	42
885.686	38
885.736	26
885.787	30
885.837	28
885.888	36
885.938	26
885.988	40
886.039	26
886.089	40
886.14	24
886.19	34
886.241	32
886.291	24
886.341	30
886.392	38
886.442	30
886.493	34
886.543	20
886.593	30
886.644	36
886.694	30
886.745	30
886.795	28
886.845	32
886.896	32
886.946	24
886.997	32
887.047	30
887.097	24
887.148	26
887.198	28
887.249	26
887.299	44
887.349	30
887.4	34
887.45	34
887.501	30
887.551	22
887.602	34
887.652	28
887.702	36
887.753	28
887.803	34
887.853	36
887.904	32
887.954	28
888.005	30
888.055	36
888.105	32
888.156	28
888.206	24
888.257	40
888.307	34
888.357	28
888.408	34
888.458	30
888.509	30
888.559	18
888.609	24
888.66	34
888.71	30
888.76	28
888.811	24
888.861	26
888.912	32
888.962	28
889.012	26
889.063	38
889.113	32
889.163	22
889.214	26
889.264	30
889.315	26
889.365	32
889.415	24
889.466	42
889.516	34
889.566	28
889.617	22
889.667	30
889.718	30
889.768	34
889.818	16
889.869	34
889.919	34
889.969	38
890.02	22
890.07	28
890.12	26
890.171	26
890.221	26
890.272	34
890.322	34
890.372	40
890.423	16
890.473	30
890.523	26
890.574	32
890.624	28
890.674	30
890.725	24
890.775	34
890.826	26
890.876	36
890.926	34
890.977	32
891.027	20
891.077	32
891.128	32
891.178	38
891.228	20
891.279	28
891.329	32
891.379	38
891.43	22
891.48	30
891.53	30
891.581	40
891.631	26
891.681	28
891.732	30
891.782	32
891.832	28
891.883	34
891.933	30
891.983	30
892.034	30
892.084	24
892.134	30
892.185	32
892.235	28
892.286	22
892.336	26
892.386	28
892.437	28
892.487	26
892.537	32
892.587	28
892.638	34
892.688	22
892.738	36
892.789	26
892.839	34
892.889	26
892.94	32
892.99	32
893.04	26
893.091	22
893.141	36
893.191	28
893.242	28
893.292	28
893.342	32
893.393	24
893.443	26
893.493	28
893.544	26
893.594	28
893.644	30
893.695	24
893.745	32
893.795	28
893.846	30
893.896	22
893.946	34
893.996	34
894.047	30
894.097	28
894.147	36
894.198	30
894.248	30
894.298	22
894.349	26
894.399	30
894.449	28
894.5	20
894.55	26
894.6	22
894.65	34
894.701	34
894.751	26
894.801	28
894.852	20
894.902	26
894.952	28
895.003	30
895.053	28
895.103	20
895.153	32
895.204	30
895.254	32
895.304	28
895.355	26
895.405	30
895.455	30
895.505	30
895.556	22
895.606	30
895.656	30
895.707	28
895.757	26
895.807	26
895.858	30
895.908	28
895.958	22
896.008	32
896.059	30
896.109	22
896.159	22
896.21	28
896.26	28
896.31	28
896.36	22
896.411	32
896.461	32
896.511	28
896.561	18
896.612	28
896.662	22
896.712	22
896.763	26
896.813	32
896.863	26
896.913	24
896.964	20
897.014	28
897.064	32
897.115	26
897.165	22
897.215	30
897.265	36
897.316	28
897.366	22
897.416	30
897.466	30
897.517	34
897.567	24
897.617	34
897.667	28
897.718	30
897.768	22
897.818	26
897.868	26
897.919	26
897.969	18
898.019	32
898.069	26
898.12	34
898.17	24
898.22	30
898.27	28
898.321	24
898.371	16
898.421	28
898.471	24
898.522	32
898.572	26
898.622	24
898.672	26
898.723	32
898.773	22
898.823	32
898.873	28
898.924	36
898.974	22
899.024	30
899.074	30
899.125	28
899.175	26
899.225	34
899.275	30
899.326	24
899.376	24
899.426	26
899.476	34
899.527	30
899.577	28
899.627	28
899.677	28
899.728	28
899.778	26
899.828	30
899.878	38
899.928	28
899.979	22
