#Acq. time (s)=	3
#Accumulations=	2
#Range (nm)=	520...900
#Windows=	8
#Auto scanning=	Off
#Autofocus=	Off
#AutoExposure=	Off
#Spike filter=	Multiple accum.
#Delay time (s)=	0
#Binning=	1
#Readout mode=	Signal
#DeNoise=	Off
#ICS correction=	Off
#Dark correction=	Off
#Inst. Process=	Off
#Detector temperature (°C)=	-59.98
#Instrument=	LabRAM HR Evol
#Detector=	Syncerity OE
#Objective=	x50_VIS
#Grating=	600 (500nm)
#ND Filter=	10%
#Laser=	514nm_Edge
#Hole=	199.981
#Range=	Auto
#StageXY=	Marzhauser
#StageZ=	Marzhauser
#X (µm)=	0
#Y (µm)=	0
#Z (µm)=	0
#Full time(mm:ss)=	1:32
#Project=	
#Sample=	
#Site=	
#Title=	M7_270224
#Remark=	
#Date=	06.03.2024 10:36
#Acquired=	06.03.2024 10:36:35
520.044	24
520.097	28
520.149	28
520.201	24
520.254	28
520.306	26
520.359	28
520.411	30
520.464	18
520.516	22
520.569	28
520.621	32
520.674	24
520.726	24
520.778	24
520.831	36
520.883	16
520.936	26
520.988	30
521.041	24
521.093	20
521.146	28
521.198	20
521.25	26
521.303	20
521.355	28
521.408	22
521.46	28
521.513	26
521.565	24
521.617	22
521.67	32
521.722	26
521.775	28
521.827	20
521.88	24
521.932	26
521.984	26
522.037	20
522.089	32
522.142	16
522.194	28
522.247	22
522.299	22
522.352	20
522.404	32
522.456	24
522.509	34
522.561	26
522.614	34
522.666	20
522.719	26
522.771	24
522.823	24
522.876	16
522.928	34
522.981	30
523.033	28
523.086	18
523.138	26
523.19	24
523.243	26
523.295	16
523.348	34
523.4	26
523.453	20
523.505	24
523.557	30
523.61	26
523.662	28
523.715	24
523.767	26
523.82	28
523.872	28
523.924	24
523.977	30
524.029	22
524.082	26
524.134	18
524.186	26
524.239	24
524.291	28
524.344	26
524.396	24
524.449	28
524.501	26
524.553	30
524.606	28
524.658	30
524.711	28
524.763	28
524.815	22
524.868	32
524.92	22
524.973	20
525.025	22
525.078	20
525.13	22
525.182	26
525.235	30
525.287	36
525.34	24
525.392	20
525.444	26
525.497	28
525.549	22
525.602	30
525.654	24
525.706	34
525.759	22
525.811	30
525.864	22
525.916	30
525.969	20
526.021	26
526.073	22
526.126	34
526.178	22
526.231	30
526.283	18
526.335	32
526.388	26
526.44	26
526.493	28
526.545	32
526.597	22
526.65	22
526.702	22
526.755	34
526.807	22
526.859	26
526.912	18
526.964	38
527.017	24
527.069	30
527.121	26
527.174	26
527.226	16
527.279	26
527.331	22
527.383	34
527.436	28
527.488	24
527.54	30
527.593	32
527.645	28
527.698	24
527.75	20
527.802	32
527.855	34
527.907	22
527.96	32
528.012	30
528.064	30
528.117	24
528.169	22
528.222	24
528.274	26
528.326	30
528.379	30
528.431	30
528.484	26
528.536	32
528.588	30
528.641	26
528.693	26
528.745	20
528.798	26
528.85	28
528.903	28
528.955	22
529.007	24
529.06	22
529.112	32
529.164	28
529.217	30
529.269	26
529.322	32
529.374	22
529.426	28
529.479	18
529.531	24
529.584	30
529.636	26
529.688	22
529.741	30
529.793	20
529.845	30
529.898	24
529.95	26
530.003	16
530.055	28
530.107	30
530.16	36
530.212	30
530.264	30
530.317	24
530.369	28
530.422	24
530.474	30
530.526	18
530.579	36
530.631	18
530.683	34
530.736	24
530.788	20
530.841	26
530.893	28
530.945	20
530.998	32
531.05	28
531.102	26
531.155	22
531.207	28
531.259	20
531.312	26
531.364	24
531.417	32
531.469	26
531.521	32
531.574	26
531.626	26
531.678	28
531.731	30
531.783	20
531.835	32
531.888	32
531.94	36
531.992	28
532.045	24
532.097	24
532.15	26
532.202	18
532.254	30
532.307	30
532.359	32
532.411	22
532.464	28
532.516	32
532.568	22
532.621	18
532.673	28
532.726	28
532.778	36
532.83	32
532.883	24
532.935	36
532.987	22
533.04	32
533.092	34
533.144	30
533.197	22
533.249	28
533.301	24
533.354	28
533.406	28
533.458	36
533.511	30
533.563	32
533.615	22
533.668	30
533.72	30
533.773	34
533.825	34
533.877	28
533.93	22
533.982	36
534.034	24
534.087	32
534.139	22
534.191	34
534.244	28
534.296	32
534.348	28
534.401	28
534.453	36
534.505	36
534.558	26
534.61	40
534.662	36
534.715	34
534.767	38
534.819	38
534.872	26
534.924	36
534.976	36
535.029	40
535.081	30
535.133	42
535.186	36
535.238	40
535.29	40
535.343	32
535.395	38
535.447	40
535.5	42
535.552	38
535.604	38
535.657	36
535.709	32
535.761	30
535.814	40
535.866	42
535.918	36
535.971	36
536.023	36
536.075	34
536.128	30
536.18	28
536.232	32
536.285	36
536.337	40
536.389	32
536.442	36
536.494	40
536.546	34
536.599	26
536.651	26
536.703	32
536.755	34
536.808	28
536.86	28
536.912	32
536.965	40
537.017	32
537.069	30
537.122	24
537.174	36
537.226	26
537.279	34
537.331	32
537.383	40
537.436	22
537.488	36
537.54	30
537.593	30
537.645	30
537.697	28
537.75	28
537.802	48
537.854	30
537.906	34
537.959	28
538.011	36
538.063	26
538.116	32
538.168	24
538.22	34
538.273	34
538.325	32
538.377	30
538.43	36
538.482	28
538.534	34
538.586	30
538.639	32
538.691	30
538.743	36
538.796	34
538.848	32
538.9	28
538.953	34
539.005	22
539.057	34
539.109	24
539.162	46
539.214	32
539.266	28
539.319	32
539.371	32
539.423	32
539.476	34
539.528	36
539.58	36
539.633	40
539.685	36
539.737	28
539.789	30
539.842	28
539.894	40
539.946	26
539.999	30
540.051	30
540.103	32
540.155	36
540.208	20
540.26	30
540.312	24
540.365	38
540.417	26
540.469	36
540.521	30
540.574	38
540.626	32
540.678	34
540.731	38
540.783	32
540.835	32
540.888	30
540.94	30
540.992	38
541.044	36
541.097	36
541.149	32
541.201	36
541.254	32
541.306	36
541.358	36
541.41	36
541.463	26
541.515	34
541.567	30
541.62	42
541.672	34
541.724	32
541.776	40
541.829	36
541.881	34
541.933	36
541.985	30
542.038	38
542.09	30
542.142	40
542.195	32
542.247	38
542.299	28
542.351	34
542.404	32
542.456	30
542.508	40
542.56	40
542.613	28
542.665	44
542.717	28
542.77	40
542.822	34
542.874	30
542.926	32
542.979	38
543.031	38
543.083	44
543.135	36
543.188	34
543.24	32
543.292	34
543.344	34
543.397	40
543.449	32
543.501	36
543.554	44
543.606	42
543.658	32
543.71	36
543.763	36
543.815	32
543.867	36
543.919	42
543.972	34
544.024	36
544.076	40
544.128	32
544.181	46
544.233	34
544.285	42
544.337	40
544.39	38
544.442	44
544.494	42
544.547	36
544.599	40
544.651	38
544.703	38
544.755	40
544.808	40
544.86	40
544.912	42
544.965	40
545.017	44
545.069	28
545.121	38
545.174	34
545.226	40
545.278	42
545.33	28
545.383	30
545.435	48
545.487	34
545.539	42
545.591	40
545.644	38
545.696	38
545.748	50
545.8	36
545.853	50
545.905	38
545.957	44
546.009	32
546.062	42
546.114	36
546.166	44
546.218	42
546.271	48
546.323	42
546.375	40
546.427	34
546.48	32
546.532	40
546.584	42
546.636	42
546.689	36
546.741	42
546.793	42
546.845	44
546.898	46
546.95	34
547.002	42
547.054	34
547.106	50
547.159	34
547.211	44
547.263	38
547.315	42
547.368	36
547.42	36
547.472	36
547.524	44
547.577	42
547.629	38
547.681	40
547.733	40
547.785	34
547.838	42
547.89	40
547.942	44
547.994	46
548.047	42
548.099	36
548.151	38
548.203	48
548.255	42
548.308	40
548.36	42
548.412	44
548.464	40
548.517	36
548.569	38
548.621	50
548.673	44
548.725	38
548.778	52
548.83	48
548.882	44
548.934	54
548.987	52
549.039	42
549.091	38
549.143	36
549.195	38
549.248	48
549.3	40
549.352	46
549.404	40
549.456	54
549.509	40
549.561	44
549.613	42
549.665	48
549.718	46
549.77	54
549.822	46
549.874	50
549.926	42
549.979	52
550.031	40
550.083	50
550.135	44
550.187	54
550.24	44
550.292	52
550.344	46
550.396	42
550.448	50
550.501	46
550.553	46
550.605	58
550.657	46
550.709	56
550.762	54
550.814	52
550.866	54
550.918	58
550.97	42
551.023	48
551.075	58
551.127	64
551.179	64
551.231	58
551.284	54
551.336	62
551.388	68
551.44	62
551.492	60
551.545	70
551.597	74
551.649	74
551.701	76
551.753	76
551.806	88
551.858	90
551.91	82
551.962	98
552.014	104
552.067	100
552.119	120
552.171	138
552.223	176
552.275	194
552.327	256
552.38	416
552.432	990
552.484	1940
552.536	3350
552.588	5572
552.641	9156
552.693	11794
552.745	8382
552.797	4014
552.849	1494
552.901	590
552.954	324
553.006	234
553.058	178
553.11	156
553.162	130
553.215	108
553.267	104
553.319	92
553.371	98
553.423	78
553.475	84
553.528	62
553.58	78
553.632	64
553.684	66
553.736	54
553.788	64
553.841	62
553.893	68
553.945	48
553.997	60
554.049	62
554.102	56
554.154	56
554.206	58
554.258	60
554.31	76
554.362	62
554.414	58
554.467	56
554.519	64
554.571	40
554.623	64
554.675	54
554.727	56
554.78	52
554.832	54
554.884	54
554.936	58
554.988	52
555.04	54
555.093	50
555.145	60
555.197	58
555.249	62
555.301	44
555.353	62
555.406	56
555.458	58
555.51	60
555.562	56
555.614	58
555.666	54
555.719	62
555.771	64
555.823	58
555.875	54
555.927	50
555.979	54
556.031	52
556.084	42
556.136	58
556.188	60
556.24	52
556.292	58
556.344	54
556.396	60
556.449	62
556.501	46
556.553	70
556.605	58
556.657	64
556.709	48
556.762	60
556.814	58
556.866	54
556.918	56
556.97	64
557.022	56
557.074	66
557.127	54
557.179	54
557.231	54
557.283	58
557.335	58
557.387	58
557.439	54
557.492	70
557.544	60
557.596	64
557.648	60
557.7	58
557.752	56
557.804	68
557.856	60
557.909	74
557.961	58
558.013	64
558.065	60
558.117	62
558.169	54
558.221	62
558.273	60
558.326	78
558.378	72
558.43	66
558.482	68
558.534	64
558.586	62
558.638	66
558.691	60
558.743	66
558.795	66
558.847	68
558.899	62
558.951	62
559.003	62
559.055	70
559.108	54
559.16	74
559.212	64
559.264	58
559.316	66
559.368	64
559.42	58
559.472	72
559.525	60
559.577	70
559.629	72
559.681	54
559.733	70
559.785	62
559.837	78
559.889	62
559.941	66
559.994	74
560.046	64
560.098	72
560.15	56
560.202	66
560.254	76
560.306	72
560.358	68
560.41	72
560.463	66
560.515	70
560.567	78
560.619	66
560.671	66
560.723	70
560.775	68
560.827	72
560.879	72
560.932	62
560.984	78
561.036	74
561.088	70
561.14	66
561.192	68
561.244	70
561.296	78
561.348	68
561.4	76
561.453	78
561.505	78
561.557	66
561.609	68
561.661	68
561.713	72
561.765	74
561.817	88
561.869	72
561.921	80
561.974	82
562.026	82
562.078	74
562.13	86
562.182	78
562.234	68
562.286	76
562.338	84
562.39	70
562.442	74
562.494	68
562.547	72
562.599	64
562.651	88
562.703	80
562.755	78
562.807	80
562.859	84
562.911	68
562.963	78
563.015	82
563.067	84
563.12	70
563.172	76
563.224	80
563.276	72
563.328	80
563.38	74
563.432	82
563.484	80
563.536	74
563.588	86
563.64	78
563.692	82
563.744	84
563.797	86
563.849	76
563.901	84
563.953	68
564.005	84
564.057	82
564.109	82
564.161	90
564.213	84
564.265	96
564.317	90
564.369	84
564.421	76
564.474	88
564.526	86
564.578	92
564.63	88
564.682	88
564.734	88
564.786	88
564.838	96
564.89	86
564.942	84
564.994	100
565.046	82
565.098	94
565.15	64
565.202	92
565.255	88
565.307	78
565.359	88
565.411	88
565.463	92
565.515	98
565.567	84
565.619	82
565.671	88
565.723	94
565.775	86
565.827	88
565.879	90
565.931	96
565.983	102
566.035	98
566.087	92
566.139	102
566.192	88
566.244	86
566.296	102
566.348	90
566.4	90
566.452	96
566.504	82
566.556	98
566.608	100
566.66	108
566.712	94
566.764	106
566.816	90
566.868	100
566.92	94
566.972	96
567.024	94
567.076	92
567.128	98
567.18	96
567.232	100
567.285	104
567.337	86
567.389	98
567.441	98
567.493	106
567.545	98
567.597	92
567.649	110
567.701	98
567.753	102
567.805	112
567.857	106
567.909	100
567.961	98
568.013	116
568.065	100
568.117	105.92
568.169	96.0866
568.221	104.067
568.273	113.432
568.325	112.145
568.377	111.295
568.429	107.94
568.481	102.064
568.533	102.718
568.585	100.673
568.637	97.6845
568.69	117.126
568.742	86.8776
568.794	110.35
568.846	105.173
568.898	108.9
568.95	92.6245
569.002	105.606
569.054	109.802
569.106	106.241
569.158	106.806
569.21	104.125
569.262	109.969
569.314	121.511
569.366	104.256
569.418	120.86
569.47	114.601
569.522	119.527
569.574	98.9153
569.626	111.506
569.678	119.373
569.73	120.367
569.782	116.586
569.834	118.922
569.886	120.142
569.938	123.613
569.99	120.89
570.042	122.672
570.094	108.937
570.146	116.572
570.198	112.587
570.25	115.382
570.302	122.511
570.354	117.91
570.406	117.926
570.458	126.53
570.51	117.49
570.562	119.701
570.614	119.073
570.666	122.114
570.718	119.538
570.77	121.751
570.822	120.211
570.874	127.44
570.926	134.749
570.978	129.959
571.03	126.017
571.082	125.376
571.134	130.359
571.186	132.81
571.238	137.625
571.29	130.384
571.342	133.49
571.394	140.829
571.446	129.664
571.498	131.272
571.55	141.672
571.602	137.3
571.654	135.935
571.706	133.83
571.758	141.155
571.81	145.71
571.862	142.831
571.914	135.36
571.966	141.845
572.018	135.77
572.07	154.079
572.122	153.451
572.174	147.954
572.226	156.054
572.278	161.026
572.33	143.481
572.382	150.261
572.434	159.052
572.486	154.618
572.538	156.35
572.59	155.475
572.642	165.598
572.694	160.69
572.746	165.087
572.798	180.189
572.85	168.68
572.902	169.281
572.954	175.594
573.006	179.481
573.058	173.774
573.11	179.324
573.162	182.657
573.214	174.056
573.266	175.597
573.312	202
573.364	182
573.416	182
573.469	184
573.521	188
573.573	212
573.625	204
573.677	212
573.73	208
573.782	198
573.834	212
573.886	210
573.938	216
573.991	198
574.043	220
574.095	234
574.147	240
574.199	246
574.252	244
574.304	232
574.356	260
574.408	258
574.46	248
574.513	254
574.565	268
574.617	270
574.669	286
574.721	290
574.774	286
574.826	280
574.878	288
574.93	294
574.982	298
575.035	302
575.087	298
575.139	316
575.191	324
575.243	326
575.296	322
575.348	328
575.4	330
575.452	340
575.504	330
575.556	330
575.609	344
575.661	340
575.713	352
575.765	344
575.817	348
575.87	334
575.922	324
575.974	342
576.026	344
576.078	368
576.131	344
576.183	340
576.235	330
576.287	330
576.339	336
576.391	326
576.444	314
576.496	342
576.548	318
576.6	300
576.652	314
576.705	320
576.757	298
576.809	288
576.861	304
576.913	316
576.965	284
577.018	286
577.07	268
577.122	274
577.174	286
577.226	294
577.279	262
577.331	258
577.383	272
577.435	268
577.487	254
577.539	266
577.592	248
577.644	240
577.696	260
577.748	256
577.8	262
577.852	232
577.905	240
577.957	232
578.009	242
578.061	246
578.113	232
578.165	232
578.218	252
578.27	228
578.322	228
578.374	214
578.426	230
578.478	222
578.531	224
578.583	236
578.635	220
578.687	212
578.739	228
578.791	228
578.844	210
578.896	220
578.948	214
579	208
579.052	216
579.104	218
579.157	212
579.209	228
579.261	224
579.313	216
579.365	206
579.417	216
579.47	218
579.522	192
579.574	214
579.626	214
579.678	224
579.73	210
579.782	222
579.835	212
579.887	200
579.939	222
579.991	214
580.043	218
580.095	220
580.148	218
580.2	218
580.252	218
580.304	232
580.356	220
580.408	224
580.46	200
580.513	226
580.565	216
580.617	210
580.669	228
580.721	224
580.773	240
580.826	226
580.878	204
580.93	222
580.982	226
581.034	208
581.086	224
581.138	214
581.191	220
581.243	226
581.295	222
581.347	216
581.399	216
581.451	226
581.503	204
581.556	220
581.608	224
581.66	228
581.712	236
581.764	230
581.816	232
581.868	216
581.92	230
581.973	238
582.025	226
582.077	230
582.129	230
582.181	226
582.233	236
582.285	232
582.338	232
582.39	232
582.442	228
582.494	236
582.546	242
582.598	248
582.65	236
582.703	234
582.755	248
582.807	238
582.859	246
582.911	234
582.963	240
583.015	248
583.067	246
583.12	238
583.172	260
583.224	258
583.276	248
583.328	260
583.38	252
583.432	256
583.484	250
583.537	252
583.589	240
583.641	264
583.693	248
583.745	230
583.797	250
583.849	258
583.901	238
583.953	250
584.006	244
584.058	250
584.11	256
584.162	256
584.214	256
584.266	264
584.318	288
584.37	264
584.423	262
584.475	270
584.527	292
584.579	272
584.631	266
584.683	264
584.735	290
584.787	284
584.839	290
584.892	296
584.944	256
584.996	268
585.048	272
585.1	306
585.152	306
585.204	284
585.256	286
585.308	288
585.361	300
585.413	294
585.465	296
585.517	272
585.569	268
585.621	296
585.673	304
585.725	280
585.777	288
585.83	276
585.882	298
585.934	288
585.986	310
586.038	286
586.09	290
586.142	308
586.194	314
586.246	298
586.298	312
586.351	300
586.403	306
586.455	318
586.507	300
586.559	316
586.611	316
586.663	302
586.715	270
586.767	300
586.819	318
586.872	314
586.924	300
586.976	292
587.028	308
587.08	314
587.132	312
587.184	336
587.236	310
587.288	318
587.34	308
587.392	314
587.445	308
587.497	310
587.549	310
587.601	306
587.653	310
587.705	328
587.757	314
587.809	332
587.861	318
587.913	314
587.965	304
588.018	332
588.07	316
588.122	322
588.174	322
588.226	306
588.278	322
588.33	324
588.382	330
588.434	344
588.486	316
588.538	338
588.59	312
588.642	310
588.695	330
588.747	340
588.799	318
588.851	332
588.903	328
588.955	336
589.007	328
589.059	336
589.111	338
589.163	348
589.215	348
589.267	340
589.319	354
589.372	336
589.424	350
589.476	328
589.528	360
589.58	340
589.632	340
589.684	338
589.736	350
589.788	358
589.84	338
589.892	336
589.944	346
589.996	342
590.048	336
590.101	338
590.153	326
590.205	332
590.257	330
590.309	320
590.361	342
590.413	336
590.465	342
590.517	326
590.569	326
590.621	334
590.673	344
590.725	312
590.777	332
590.829	328
590.881	344
590.933	334
590.986	336
591.038	330
591.09	334
591.142	316
591.194	338
591.246	326
591.298	326
591.35	304
591.402	290
591.454	324
591.506	326
591.558	328
591.61	330
591.662	324
591.714	330
591.766	320
591.818	318
591.87	328
591.923	298
591.975	334
592.027	322
592.079	324
592.131	318
592.183	316
592.235	320
592.287	292
592.339	320
592.391	308
592.443	302
592.495	318
592.547	304
592.599	312
592.651	316
592.703	310
592.755	318
592.807	320
592.859	318
592.911	318
592.963	332
593.015	302
593.068	304
593.12	316
593.172	316
593.224	314
593.276	310
593.328	310
593.38	334
593.432	306
593.484	304
593.536	306
593.588	340
593.64	322
593.692	318
593.744	286
593.796	320
593.848	316
593.9	316
593.952	336
594.004	322
594.056	320
594.108	316
594.16	314
594.212	318
594.264	324
594.316	306
594.368	308
594.42	308
594.472	326
594.524	308
594.576	312
594.628	324
594.68	318
594.732	326
594.784	314
594.837	326
594.889	328
594.941	328
594.993	324
595.045	324
595.097	318
595.149	306
595.201	300
595.253	312
595.305	308
595.357	306
595.409	322
595.461	310
595.513	334
595.565	332
595.617	312
595.669	326
595.721	348
595.773	330
595.825	334
595.877	342
595.929	334
595.981	340
596.033	332
596.085	346
596.137	328
596.189	314
596.241	328
596.293	328
596.345	344
596.397	362
596.449	358
596.501	342
596.553	348
596.605	354
596.657	356
596.709	366
596.761	364
596.813	332
596.865	336
596.917	356
596.969	354
597.021	338
597.073	338
597.125	366
597.177	352
597.229	330
597.281	356
597.333	318
597.385	324
597.437	332
597.489	364
597.541	330
597.593	356
597.645	338
597.697	362
597.749	350
597.801	354
597.853	352
597.905	340
597.957	338
598.009	340
598.061	350
598.113	364
598.165	344
598.217	344
598.269	340
598.321	344
598.373	340
598.425	360
598.477	354
598.529	328
598.581	344
598.633	344
598.685	352
598.737	360
598.789	352
598.841	348
598.893	346
598.945	352
598.997	354
599.049	354
599.101	322
599.153	352
599.205	334
599.257	344
599.309	340
599.361	354
599.413	338
599.465	370
599.517	364
599.569	352
599.62	346
599.672	336
599.724	352
599.776	350
599.828	342
599.88	346
599.932	348
599.984	346
600.036	356
600.088	358
600.14	358
600.192	336
600.244	354
600.296	352
600.348	352
600.4	336
600.452	334
600.504	352
600.556	366
600.608	344
600.66	348
600.712	348
600.764	348
600.816	336
600.868	342
600.92	348
600.972	354
601.024	350
601.076	332
601.128	352
601.18	346
601.232	346
601.284	368
601.335	344
601.387	368
601.439	348
601.491	354
601.543	368
601.595	354
601.647	372
601.699	360
601.751	348
601.803	356
601.855	358
601.907	366
601.959	354
602.011	350
602.063	352
602.115	348
602.167	350
602.219	368
602.271	352
602.323	342
602.375	366
602.427	350
602.478	374
602.53	354
602.582	360
602.634	366
602.686	360
602.738	358
602.79	354
602.842	366
602.894	350
602.946	350
602.998	370
603.05	362
603.102	364
603.154	352
603.206	356
603.258	368
603.31	370
603.362	342
603.413	356
603.465	354
603.517	364
603.569	344
603.621	356
603.673	366
603.725	368
603.777	366
603.829	364
603.881	354
603.933	360
603.985	356
604.037	372
604.089	354
604.141	324
604.193	364
604.244	368
604.296	366
604.348	368
604.4	378
604.452	370
604.504	374
604.556	366
604.608	352
604.66	346
604.712	372
604.764	368
604.816	352
604.868	356
604.92	350
604.971	368
605.023	372
605.075	324
605.127	388
605.179	358
605.231	368
605.283	378
605.335	358
605.387	372
605.439	368
605.491	378
605.543	370
605.594	354
605.646	358
605.698	368
605.75	378
605.802	382
605.854	372
605.906	372
605.958	354
606.01	356
606.062	358
606.114	374
606.166	368
606.217	372
606.269	372
606.321	374
606.373	368
606.425	374
606.477	380
606.529	356
606.581	362
606.633	382
606.685	358
606.737	374
606.789	360
606.84	360
606.892	370
606.944	374
606.996	368
607.048	384
607.1	374
607.152	384
607.204	374
607.256	368
607.308	376
607.359	352
607.411	374
607.463	370
607.515	374
607.567	374
607.619	372
607.671	364
607.723	368
607.775	368
607.827	360
607.878	374
607.93	366
607.982	390
608.034	372
608.086	378
608.138	374
608.19	394
608.242	370
608.294	382
608.345	382
608.397	358
608.449	364
608.501	380
608.553	370
608.605	366
608.657	364
608.709	378
608.761	376
608.812	366
608.864	378
608.916	380
608.968	400
609.02	368
609.072	384
609.124	378
609.176	404
609.228	388
609.279	382
609.331	404
609.383	360
609.435	376
609.487	380
609.539	402
609.591	402
609.643	370
609.694	368
609.746	394
609.798	400
609.85	386
609.902	382
609.954	394
610.006	394
610.058	378
610.109	402
610.161	396
610.213	404
610.265	398
610.317	392
610.369	404
610.421	394
610.473	378
610.524	398
610.576	386
610.628	414
610.68	396
610.732	400
610.784	374
610.836	392
610.887	400
610.939	394
610.991	380
611.043	404
611.095	378
611.147	386
611.199	396
611.25	406
611.302	422
611.354	390
611.406	386
611.458	406
611.51	384
611.562	412
611.614	384
611.665	388
611.717	398
611.769	402
611.821	382
611.873	388
611.925	398
611.977	412
612.028	380
612.08	408
612.132	408
612.184	408
612.236	426
612.288	400
612.339	412
612.391	376
612.443	410
612.495	418
612.547	418
612.599	406
612.651	398
612.702	412
612.754	416
612.806	436
612.858	428
612.91	442
612.962	416
613.013	426
613.065	416
613.117	416
613.169	412
613.221	428
613.273	414
613.325	432
613.376	416
613.428	404
613.48	424
613.532	416
613.584	428
613.635	432
613.687	422
613.739	418
613.791	446
613.843	440
613.895	426
613.947	448
613.998	434
614.05	438
614.102	434
614.154	420
614.206	432
614.258	414
614.309	416
614.361	402
614.413	420
614.465	424
614.517	444
614.568	414
614.62	430
614.672	450
614.724	402
614.776	426
614.828	422
614.879	424
614.931	428
614.983	448
615.035	432
615.087	456
615.139	448
615.19	452
615.242	458
615.294	448
615.346	440
615.398	440
615.449	462
615.501	432
615.553	446
615.605	430
615.657	470
615.709	452
615.76	460
615.812	448
615.864	450
615.916	440
615.968	468
616.019	461.793
616.071	463.66
616.123	448.098
616.175	440.357
616.227	449.072
616.278	461.005
616.33	459.38
616.382	453.948
616.434	459.311
616.486	467.552
616.537	471.279
616.589	439.296
616.641	445.37
616.693	461.601
616.745	450.269
616.797	470.697
616.848	454.491
616.9	453.155
616.952	468.196
617.004	449.139
617.056	443.226
617.107	462.801
617.159	456.698
617.211	463.795
617.263	478.405
617.315	477.03
617.366	475.613
617.418	459.97
617.47	454.802
617.522	476.02
617.573	485.255
617.625	462.439
617.677	460.362
617.729	457.113
617.781	481.615
617.832	477.019
617.884	481.093
617.936	461.833
617.988	488.435
618.04	474.543
618.091	477.531
618.143	487.493
618.195	480.789
618.247	473.012
618.299	481.9
618.35	464.543
618.402	471.601
618.454	473.946
618.506	486.152
618.557	487.184
618.609	482.191
618.661	481.781
618.713	480.485
618.765	469.89
618.816	479.847
618.868	488.052
618.92	475.642
618.972	484.31
619.023	485.647
619.075	466.874
619.127	476.134
619.179	483.24
619.231	479.799
619.282	491.297
619.334	473.795
619.386	481.636
619.438	477.184
619.49	491.964
619.541	484.664
619.593	479.647
619.645	486.016
619.697	484.94
619.748	483.813
619.8	488.442
619.852	491.167
619.904	484.071
619.955	479.225
620.007	483.765
620.059	495.47
620.111	489.731
620.162	487.063
620.214	492.745
620.266	492.03
620.318	492.872
620.37	484.891
620.421	490.939
620.473	481.78
620.525	489.734
620.577	487.867
620.628	494.435
620.68	495.926
620.732	497.265
620.784	493.67
620.835	505.589
620.887	481.793
620.939	481.931
620.991	484.614
621.042	502.618
621.094	511.323
621.146	492.416
621.198	481.05
621.249	495.204
621.269	504
621.321	476
621.373	490
621.425	490
621.477	488
621.529	470
621.581	476
621.633	498
621.685	484
621.737	488
621.789	502
621.841	482
621.893	492
621.945	494
621.997	494
622.049	508
622.101	512
622.153	478
622.205	514
622.257	510
622.309	476
622.361	498
622.413	512
622.465	510
622.517	500
622.569	496
622.621	486
622.673	496
622.725	514
622.776	486
622.828	492
622.88	522
622.932	484
622.984	502
623.036	500
623.088	496
623.14	514
623.192	490
623.244	488
623.296	496
623.348	508
623.4	502
623.452	506
623.504	504
623.556	502
623.608	516
623.66	518
623.712	508
623.764	474
623.816	510
623.868	506
623.92	508
623.972	478
624.024	520
624.076	516
624.128	492
624.18	510
624.232	502
624.284	528
624.336	512
624.388	484
624.44	508
624.492	502
624.544	514
624.596	524
624.648	498
624.699	516
624.751	522
624.803	542
624.855	532
624.907	520
624.959	526
625.011	522
625.063	518
625.115	516
625.167	520
625.219	536
625.271	518
625.323	508
625.375	534
625.427	528
625.479	530
625.531	526
625.583	512
625.635	536
625.687	530
625.739	538
625.791	546
625.843	500
625.895	524
625.946	532
625.998	502
626.05	538
626.102	518
626.154	516
626.206	502
626.258	536
626.31	528
626.362	528
626.414	522
626.466	534
626.518	522
626.57	532
626.622	558
626.674	546
626.726	524
626.778	516
626.83	532
626.882	562
626.934	540
626.985	536
627.037	562
627.089	540
627.141	536
627.193	514
627.245	548
627.297	544
627.349	560
627.401	532
627.453	550
627.505	512
627.557	524
627.609	542
627.661	550
627.713	528
627.765	566
627.817	514
627.868	544
627.92	544
627.972	526
628.024	548
628.076	554
628.128	546
628.18	514
628.232	522
628.284	576
628.336	548
628.388	534
628.44	536
628.492	558
628.544	530
628.596	536
628.647	558
628.699	554
628.751	528
628.803	560
628.855	540
628.907	560
628.959	542
629.011	546
629.063	564
629.115	556
629.167	568
629.219	542
629.271	542
629.322	582
629.374	582
629.426	574
629.478	566
629.53	564
629.582	584
629.634	592
629.686	568
629.738	548
629.79	560
629.842	550
629.894	576
629.945	568
629.997	582
630.049	554
630.101	582
630.153	570
630.205	598
630.257	572
630.309	590
630.361	590
630.413	588
630.465	600
630.517	542
630.568	580
630.62	580
630.672	580
630.724	588
630.776	598
630.828	592
630.88	592
630.932	588
630.984	588
631.036	584
631.088	592
631.14	604
631.191	584
631.243	612
631.295	578
631.347	618
631.399	574
631.451	588
631.503	596
631.555	570
631.607	588
631.659	588
631.71	610
631.762	610
631.814	586
631.866	596
631.918	626
631.97	596
632.022	610
632.074	592
632.126	616
632.178	610
632.229	606
632.281	598
632.333	604
632.385	634
632.437	596
632.489	610
632.541	622
632.593	604
632.645	608
632.696	608
632.748	606
632.8	600
632.852	600
632.904	620
632.956	620
633.008	594
633.06	602
633.112	628
633.164	604
633.215	622
633.267	638
633.319	652
633.371	624
633.423	642
633.475	636
633.527	624
633.579	668
633.63	628
633.682	648
633.734	620
633.786	636
633.838	668
633.89	646
633.942	640
633.994	652
634.046	654
634.097	628
634.149	644
634.201	670
634.253	666
634.305	684
634.357	634
634.409	674
634.461	666
634.512	694
634.564	664
634.616	642
634.668	676
634.72	692
634.772	664
634.824	670
634.876	678
634.927	678
634.979	650
635.031	676
635.083	680
635.135	682
635.187	678
635.239	662
635.291	688
635.342	688
635.394	670
635.446	700
635.498	680
635.55	708
635.602	682
635.654	722
635.705	736
635.757	692
635.809	716
635.861	714
635.913	734
635.965	722
636.017	718
636.068	738
636.12	728
636.172	726
636.224	766
636.276	768
636.328	798
636.38	786
636.431	766
636.483	768
636.535	778
636.587	796
636.639	796
636.691	790
636.743	802
636.794	836
636.846	822
636.898	814
636.95	858
637.002	810
637.054	874
637.106	858
637.157	870
637.209	892
637.261	936
637.313	922
637.365	900
637.417	952
637.469	954
637.52	938
637.572	938
637.624	962
637.676	972
637.728	964
637.78	1008
637.831	1038
637.883	1002
637.935	984
637.987	1028
638.039	1016
638.091	1032
638.143	1016
638.194	1062
638.246	1004
638.298	1028
638.35	1060
638.402	998
638.454	1018
638.505	1032
638.557	1022
638.609	1012
638.661	984
638.713	998
638.765	974
638.816	984
638.868	964
638.92	968
638.972	924
639.024	910
639.076	940
639.127	952
639.179	902
639.231	924
639.283	934
639.335	884
639.387	906
639.438	906
639.49	928
639.542	894
639.594	878
639.646	880
639.698	904
639.749	868
639.801	862
639.853	852
639.905	876
639.957	842
640.008	860
640.06	856
640.112	872
640.164	834
640.216	846
640.268	842
640.319	838
640.371	854
640.423	826
640.475	816
640.527	830
640.578	836
640.63	816
640.682	812
640.734	822
640.786	830
640.838	842
640.889	798
640.941	824
640.993	830
641.045	818
641.097	832
641.148	824
641.2	822
641.252	812
641.304	794
641.356	850
641.408	814
641.459	808
641.511	800
641.563	838
641.615	792
641.667	804
641.718	814
641.77	812
641.822	776
641.874	824
641.926	800
641.977	804
642.029	824
642.081	804
642.133	780
642.185	830
642.236	780
642.288	822
642.34	834
642.392	824
642.444	812
642.495	826
642.547	808
642.599	794
642.651	820
642.703	828
642.754	810
642.806	826
642.858	808
642.91	794
642.962	814
643.013	812
643.065	822
643.117	798
643.169	796
643.221	824
643.272	822
643.324	788
643.376	792
643.428	782
643.479	848
643.531	788
643.583	798
643.635	822
643.687	820
643.738	826
643.79	826
643.842	852
643.894	810
643.946	830
643.997	810
644.049	812
644.101	832
644.153	812
644.205	820
644.256	836
644.308	808
644.36	806
644.412	828
644.463	826
644.515	844
644.567	828
644.619	832
644.671	824
644.722	838
644.774	832
644.826	794
644.878	826
644.929	834
644.981	832
645.033	804
645.085	858
645.136	830
645.188	850
645.24	846
645.292	868
645.344	824
645.395	842
645.447	832
645.499	828
645.551	848
645.602	842
645.654	842
645.706	860
645.758	844
645.81	872
645.861	848
645.913	852
645.965	842
646.017	868
646.068	842
646.12	852
646.172	816
646.224	842
646.275	846
646.327	816
646.379	842
646.431	874
646.482	888
646.534	856
646.586	830
646.638	858
646.689	880
646.741	870
646.793	844
646.845	852
646.896	862
646.948	858
647	820
647.052	868
647.104	864
647.155	872
647.207	844
647.259	874
647.31	876
647.362	850
647.414	850
647.466	860
647.518	904
647.569	850
647.621	882
647.673	856
647.724	874
647.776	876
647.828	878
647.88	848
647.931	894
647.983	844
648.035	878
648.087	844
648.138	908
648.19	902
648.242	902
648.294	890
648.345	902
648.397	882
648.449	864
648.501	876
648.552	902
648.604	900
648.656	872
648.708	880
648.759	924
648.811	874
648.863	912
648.915	866
648.966	910
649.018	908
649.07	876
649.121	864
649.173	914
649.225	908
649.277	912
649.328	882
649.38	870
649.432	944
649.484	912
649.535	914
649.587	888
649.639	902
649.69	900
649.742	910
649.794	922
649.846	964
649.897	934
649.949	920
650.001	918
650.053	944
650.104	924
650.156	960
650.208	882
650.259	940
650.311	934
650.363	936
650.415	910
650.466	958
650.518	930
650.57	916
650.621	928
650.673	950
650.725	936
650.777	908
650.828	956
650.88	958
650.932	940
650.984	942
651.035	934
651.087	954
651.139	954
651.19	966
651.242	930
651.294	966
651.345	964
651.397	958
651.449	946
651.501	990
651.552	952
651.604	976
651.656	970
651.707	996
651.759	958
651.811	954
651.863	966
651.914	934
651.966	990
652.018	972
652.069	942
652.121	964
652.173	956
652.224	950
652.276	954
652.328	970
652.38	1000
652.431	1004
652.483	990
652.535	968
652.586	992
652.638	958
652.69	1016
652.741	1010
652.793	1006
652.845	988
652.897	950
652.948	1018
653	1008
653.052	1006
653.103	942
653.155	1024
653.207	1010
653.258	998
653.31	1010
653.362	1004
653.413	1024
653.465	996
653.517	1002
653.568	1014
653.62	1012
653.672	1018
653.724	1024
653.775	1022
653.827	1044
653.879	1010
653.93	1026
653.982	1044
654.034	1044
654.085	1052
654.137	1044
654.189	1022
654.24	1040
654.292	1024
654.344	1054
654.395	1034
654.447	1014
654.499	1030
654.55	1004
654.602	1052
654.654	1056
654.705	1040
654.757	1036
654.809	1050
654.86	1058
654.912	1056
654.964	1074
655.016	1096
655.067	1028
655.119	1080
655.17	1078
655.222	1082
655.274	1082
655.326	1088
655.377	1068
655.429	1046
655.481	1100
655.532	1072
655.584	1106
655.635	1090
655.687	1086
655.739	1104
655.79	1100
655.842	1116
655.894	1114
655.945	1104
655.997	1104
656.049	1132
656.1	1116
656.152	1096
656.204	1138
656.255	1134
656.307	1134
656.359	1108
656.41	1156
656.462	1120
656.514	1144
656.565	1168
656.617	1118
656.669	1172
656.72	1160
656.772	1150
656.824	1146
656.875	1144
656.927	1126
656.979	1178
657.03	1188
657.082	1160
657.134	1158
657.185	1162
657.237	1208
657.288	1184
657.34	1188
657.392	1202
657.443	1176
657.495	1152
657.547	1188
657.598	1184
657.65	1180
657.702	1156
657.753	1178
657.805	1176
657.857	1184
657.908	1174
657.96	1170
658.011	1158
658.063	1178
658.115	1202
658.166	1206
658.218	1178
658.27	1208
658.321	1228
658.373	1184
658.425	1192
658.476	1226
658.528	1224
658.579	1210
658.631	1238
658.683	1210
658.734	1212
658.786	1200
658.838	1202
658.889	1218
658.941	1228
658.992	1184
659.044	1230
659.096	1188
659.147	1230
659.199	1208
659.251	1210
659.302	1214
659.354	1206
659.406	1258
659.457	1188
659.509	1268
659.56	1204
659.612	1224
659.664	1222
659.715	1224
659.767	1226
659.818	1238
659.87	1238
659.922	1224
659.973	1224
660.025	1246
660.077	1246
660.128	1204
660.18	1236
660.231	1228
660.283	1244
660.335	1250
660.386	1222
660.438	1244
660.49	1236
660.541	1196
660.593	1240
660.644	1258
660.696	1274
660.748	1214
660.799	1220
660.851	1236
660.902	1200
660.954	1202
661.006	1240
661.057	1254
661.109	1216
661.16	1232
661.212	1240
661.264	1188
661.315	1200
661.367	1226
661.418	1226
661.47	1212
661.522	1192
661.573	1216
661.625	1256
661.676	1250
661.728	1244
661.78	1242
661.831	1214
661.883	1226
661.934	1230
661.986	1210
662.038	1252
662.089	1244
662.141	1230
662.192	1248
662.244	1232
662.296	1234
662.347	1204
662.399	1208
662.45	1228
662.502	1190
662.554	1238
662.605	1252
662.657	1214
662.708	1240
662.76	1220
662.811	1252
662.863	1232
662.915	1212
662.966	1204
663.018	1240
663.069	1246
663.121	1230
663.173	1232
663.224	1230
663.276	1208
663.327	1250
663.379	1240
663.43	1238
663.482	1254
663.534	1238
663.585	1258
663.637	1218
663.688	1248
663.74	1232
663.792	1224.22
663.843	1255.04
663.895	1237.84
663.946	1245.58
663.998	1239.86
664.049	1232.38
664.101	1203.26
664.153	1244.51
664.204	1218.76
664.256	1211.61
664.307	1245.96
664.359	1238.67
664.41	1218.66
664.462	1248.31
664.513	1243.54
664.565	1229.09
664.617	1248.23
664.668	1234.07
664.72	1206.56
664.771	1228.61
664.823	1223.85
664.874	1229.77
664.926	1218.28
664.978	1226.71
665.029	1262.62
665.081	1225.52
665.132	1245.62
665.184	1224.2
665.235	1224.2
665.287	1236.13
665.339	1256
665.39	1222.64
665.442	1210.98
665.493	1222.85
665.545	1225.44
665.596	1219.04
665.648	1229.23
665.699	1214.52
665.751	1233.66
665.802	1228.03
665.854	1253.65
665.906	1213.46
665.957	1236.99
666.009	1204.97
666.06	1230.37
666.112	1235.48
666.163	1236.37
666.215	1239.95
666.266	1224.66
666.318	1253
666.37	1231.6
666.421	1227.1
666.473	1214.37
666.524	1237.29
666.576	1220.26
666.627	1220.11
666.679	1212.76
666.73	1220.56
666.782	1232.8
666.833	1244.76
666.885	1245.57
666.937	1213
666.988	1222.23
667.04	1219.93
667.091	1234.07
667.143	1246.56
667.194	1242.17
667.246	1228.34
667.297	1209.55
667.349	1208.22
667.4	1234.61
667.452	1242.25
667.503	1227.14
667.555	1235.22
667.607	1238.34
667.658	1245.58
667.71	1222.4
667.761	1205.14
667.813	1224.73
667.864	1229.4
667.916	1240.18
667.967	1222.19
668.019	1225
668.07	1203.07
668.122	1221.49
668.173	1243.41
668.225	1247.67
668.276	1244.26
668.328	1239.99
668.379	1234.68
668.431	1232.89
668.482	1208.91
668.534	1216.12
668.586	1237.51
668.637	1229.31
668.689	1240.3
668.74	1236.68
668.792	1232.49
668.843	1217.87
668.895	1225.28
668.935	1208
668.987	1232
669.038	1234
669.09	1204
669.142	1240
669.194	1226
669.245	1240
669.297	1202
669.349	1230
669.401	1228
669.453	1216
669.504	1214
669.556	1248
669.608	1180
669.66	1226
669.711	1224
669.763	1248
669.815	1224
669.867	1240
669.918	1260
669.97	1210
670.022	1200
670.074	1216
670.125	1260
670.177	1242
670.229	1272
670.281	1216
670.332	1282
670.384	1240
670.436	1210
670.488	1206
670.539	1230
670.591	1218
670.643	1248
670.695	1242
670.747	1208
670.798	1240
670.85	1226
670.902	1238
670.953	1212
671.005	1214
671.057	1246
671.109	1252
671.161	1216
671.212	1242
671.264	1248
671.316	1228
671.367	1248
671.419	1212
671.471	1258
671.523	1254
671.575	1218
671.626	1270
671.678	1246
671.73	1234
671.781	1220
671.833	1232
671.885	1222
671.937	1228
671.988	1238
672.04	1240
672.092	1264
672.144	1246
672.195	1230
672.247	1262
672.299	1232
672.351	1250
672.402	1250
672.454	1242
672.506	1254
672.558	1232
672.609	1284
672.661	1272
672.713	1246
672.765	1274
672.816	1252
672.868	1236
672.92	1282
672.971	1220
673.023	1268
673.075	1262
673.127	1266
673.178	1238
673.23	1228
673.282	1246
673.334	1242
673.385	1252
673.437	1264
673.489	1268
673.54	1286
673.592	1296
673.644	1290
673.696	1264
673.747	1210
673.799	1280
673.851	1282
673.903	1278
673.954	1258
674.006	1230
674.058	1270
674.109	1236
674.161	1308
674.213	1296
674.265	1286
674.316	1282
674.368	1302
674.42	1280
674.471	1274
674.523	1242
674.575	1300
674.627	1280
674.678	1314
674.73	1260
674.782	1298
674.833	1298
674.885	1310
674.937	1276
674.989	1296
675.04	1334
675.092	1296
675.144	1300
675.195	1322
675.247	1306
675.299	1334
675.351	1346
675.402	1328
675.454	1294
675.506	1310
675.557	1312
675.609	1326
675.661	1334
675.713	1302
675.764	1318
675.816	1310
675.868	1306
675.919	1346
675.971	1340
676.023	1354
676.074	1308
676.126	1292
676.178	1320
676.23	1304
676.281	1320
676.333	1320
676.385	1322
676.436	1324
676.488	1286
676.54	1326
676.591	1316
676.643	1332
676.695	1332
676.747	1324
676.798	1318
676.85	1310
676.902	1308
676.953	1392
677.005	1302
677.057	1352
677.108	1326
677.16	1308
677.212	1294
677.263	1300
677.315	1284
677.367	1322
677.419	1304
677.47	1304
677.522	1348
677.574	1314
677.625	1326
677.677	1352
677.729	1340
677.78	1360
677.832	1334
677.884	1344
677.935	1294
677.987	1308
678.039	1362
678.091	1332
678.142	1384
678.194	1332
678.246	1330
678.297	1338
678.349	1300
678.401	1306
678.452	1354
678.504	1296
678.556	1302
678.607	1342
678.659	1338
678.711	1332
678.762	1328
678.814	1350
678.866	1318
678.917	1338
678.969	1346
679.021	1326
679.072	1330
679.124	1374
679.176	1306
679.227	1318
679.279	1346
679.331	1278
679.382	1280
679.434	1350
679.486	1362
679.537	1308
679.589	1324
679.641	1344
679.692	1354
679.744	1336
679.796	1332
679.847	1306
679.899	1330
679.951	1274
680.003	1372
680.054	1338
680.106	1326
680.157	1342
680.209	1338
680.261	1350
680.312	1340
680.364	1356
680.416	1340
680.467	1338
680.519	1344
680.571	1348
680.622	1340
680.674	1346
680.726	1378
680.777	1324
680.829	1322
680.881	1346
680.932	1366
680.984	1348
681.036	1334
681.087	1332
681.139	1372
681.191	1368
681.242	1338
681.294	1332
681.346	1338
681.397	1370
681.449	1386
681.501	1312
681.552	1360
681.604	1392
681.656	1360
681.707	1362
681.759	1380
681.81	1372
681.862	1368
681.914	1378
681.965	1380
682.017	1400
682.069	1334
682.12	1382
682.172	1374
682.224	1384
682.275	1394
682.327	1348
682.379	1414
682.43	1336
682.482	1398
682.533	1390
682.585	1380
682.637	1360
682.688	1350
682.74	1390
682.792	1368
682.843	1388
682.895	1378
682.947	1396
682.998	1370
683.05	1402
683.102	1374
683.153	1344
683.205	1356
683.256	1344
683.308	1392
683.36	1396
683.411	1366
683.463	1352
683.515	1386
683.566	1338
683.618	1358
683.669	1402
683.721	1362
683.773	1386
683.824	1378
683.876	1388
683.928	1356
683.979	1348
684.031	1386
684.082	1396
684.134	1370
684.186	1380
684.237	1398
684.289	1398
684.341	1348
684.392	1392
684.444	1372
684.495	1356
684.547	1358
684.599	1332
684.65	1344
684.702	1352
684.754	1348
684.805	1418
684.857	1370
684.908	1378
684.96	1380
685.012	1372
685.063	1372
685.115	1350
685.166	1360
685.218	1364
685.27	1408
685.321	1382
685.373	1370
685.424	1338
685.476	1388
685.528	1376
685.579	1352
685.631	1408
685.683	1328
685.734	1400
685.786	1338
685.837	1314
685.889	1400
685.941	1388
685.992	1352
686.044	1358
686.095	1396
686.147	1296
686.199	1354
686.25	1356
686.302	1344
686.353	1358
686.405	1352
686.457	1396
686.508	1348
686.56	1360
686.611	1372
686.663	1352
686.715	1352
686.766	1382
686.818	1362
686.869	1364
686.921	1386
686.973	1334
687.024	1358
687.076	1362
687.127	1336
687.179	1330
687.231	1358
687.282	1326
687.334	1348
687.385	1330
687.437	1356
687.489	1382
687.54	1324
687.592	1334
687.643	1330
687.695	1304
687.747	1336
687.798	1364
687.85	1352
687.901	1346
687.953	1388
688.004	1366
688.056	1328
688.108	1346
688.159	1302
688.211	1342
688.262	1338
688.314	1334
688.366	1306
688.417	1372
688.469	1344
688.52	1342
688.572	1330
688.623	1360
688.675	1314
688.727	1348
688.778	1346
688.83	1316
688.881	1358
688.933	1328
688.984	1338
689.036	1354
689.088	1310
689.139	1328
689.191	1332
689.242	1338
689.294	1346
689.346	1334
689.397	1322
689.449	1302
689.5	1322
689.552	1366
689.603	1336
689.655	1322
689.706	1318
689.758	1352
689.81	1342
689.861	1348
689.913	1344
689.964	1332
690.016	1354
690.067	1340
690.119	1326
690.171	1348
690.222	1320
690.274	1290
690.325	1354
690.377	1310
690.428	1326
690.48	1320
690.531	1348
690.583	1334
690.635	1282
690.686	1314
690.738	1312
690.789	1320
690.841	1330
690.892	1314
690.944	1380
690.996	1346
691.047	1332
691.099	1340
691.15	1312
691.202	1308
691.253	1304
691.305	1318
691.356	1338
691.408	1302
691.459	1320
691.511	1322
691.563	1316
691.614	1318
691.666	1320
691.717	1328
691.769	1334
691.82	1288
691.872	1298
691.923	1288
691.975	1340
692.026	1296
692.078	1324
692.13	1302
692.181	1330
692.233	1302
692.284	1278
692.336	1282
692.387	1268
692.439	1296
692.49	1274
692.542	1302
692.593	1318
692.645	1318
692.697	1302
692.748	1308
692.8	1310
692.851	1300
692.903	1276
692.954	1304
693.006	1316
693.057	1314
693.109	1306
693.16	1262
693.212	1284
693.263	1290
693.315	1284
693.366	1268
693.418	1292
693.47	1302
693.521	1318
693.573	1306
693.624	1262
693.676	1290
693.727	1268
693.779	1278
693.83	1272
693.882	1284
693.933	1268
693.985	1310
694.036	1274
694.088	1286
694.139	1270
694.191	1264
694.242	1298
694.294	1308
694.345	1242
694.397	1298
694.448	1280
694.5	1260
694.552	1274
694.603	1248
694.655	1282
694.706	1278
694.758	1260
694.809	1294
694.861	1260
694.912	1270
694.964	1250
695.015	1266
695.067	1268
695.118	1280
695.17	1244
695.221	1286
695.273	1294
695.324	1272
695.376	1250
695.427	1260
695.479	1258
695.53	1260
695.582	1260
695.633	1266
695.685	1260
695.736	1288
695.788	1252
695.839	1254
695.891	1298
695.942	1266
695.994	1262
696.045	1284
696.097	1274
696.148	1254
696.2	1264
696.251	1296
696.303	1264
696.354	1278
696.406	1226
696.457	1258
696.509	1250
696.56	1280
696.612	1242
696.663	1264
696.715	1266
696.766	1258
696.818	1216
696.869	1262
696.921	1268
696.972	1246
697.024	1258
697.075	1272
697.127	1250
697.178	1252
697.23	1262
697.281	1232
697.333	1202
697.384	1252
697.436	1248
697.487	1230
697.539	1222
697.59	1262
697.642	1268
697.693	1230
697.745	1262
697.796	1236
697.847	1218
697.899	1262
697.95	1250
698.002	1246
698.053	1244
698.105	1186
698.156	1202
698.208	1238
698.259	1232
698.311	1230
698.362	1242
698.414	1212
698.465	1224
698.517	1232
698.568	1200
698.62	1232
698.671	1214
698.723	1262
698.774	1188
698.826	1224
698.877	1208
698.928	1188
698.98	1204
699.031	1228
699.083	1234
699.134	1228
699.186	1176
699.237	1222
699.289	1184
699.34	1236
699.392	1204
699.443	1190
699.495	1192
699.546	1244
699.598	1182
699.649	1210
699.7	1220
699.752	1190
699.803	1202
699.855	1214
699.906	1176
699.958	1192
700.009	1216
700.061	1236
700.112	1178
700.164	1258
700.215	1176
700.266	1208
700.318	1216
700.369	1220
700.421	1222
700.472	1232
700.524	1200
700.575	1206
700.627	1192
700.678	1210
700.73	1202
700.781	1230
700.832	1216
700.884	1200
700.935	1214
700.987	1230
701.038	1176
701.09	1164
701.141	1208
701.193	1208
701.244	1174
701.295	1202
701.347	1202
701.398	1218
701.45	1198
701.501	1186
701.553	1192
701.604	1216
701.656	1214
701.707	1194
701.758	1178
701.81	1172
701.861	1216
701.913	1208
701.964	1206
702.016	1188
702.067	1214
702.119	1174
702.17	1194
702.221	1174
702.273	1204
702.324	1194
702.376	1206
702.427	1172
702.479	1202
702.53	1182
702.581	1208
702.633	1220
702.684	1216
702.736	1206
702.787	1196
702.839	1230
702.89	1214
702.941	1196
702.993	1220
703.044	1232
703.096	1208
703.147	1188
703.199	1164
703.25	1178
703.301	1236
703.353	1188
703.404	1194
703.456	1218
703.507	1216
703.558	1198
703.61	1216
703.661	1188
703.713	1190
703.764	1182
703.816	1206
703.867	1186
703.918	1162
703.97	1176
704.021	1192
704.073	1178
704.124	1180
704.175	1210
704.227	1192
704.278	1192
704.33	1184
704.381	1230
704.432	1226
704.484	1170
704.535	1190
704.587	1200
704.638	1176
704.69	1180
704.741	1202
704.792	1150
704.844	1202
704.895	1188
704.947	1186
704.998	1184
705.049	1198
705.101	1180
705.152	1198
705.204	1194
705.255	1178
705.306	1156
705.358	1180
705.409	1180
705.461	1148
705.512	1178
705.563	1170
705.615	1164
705.666	1142
705.718	1168
705.769	1158
705.82	1172
705.872	1174
705.923	1180
705.974	1142
706.026	1170
706.077	1158
706.129	1134
706.18	1176
706.231	1118
706.283	1142
706.334	1168
706.386	1176
706.437	1156
706.488	1170
706.54	1186
706.591	1148
706.643	1156
706.694	1158
706.745	1124
706.797	1144
706.848	1164
706.899	1128
706.951	1154
707.002	1128
707.054	1124
707.105	1128
707.156	1154
707.208	1138
707.259	1122
707.31	1138
707.362	1110
707.413	1108
707.465	1126
707.516	1160
707.567	1152
707.619	1126
707.67	1128
707.721	1136
707.773	1152
707.824	1098
707.876	1166
707.927	1128
707.978	1118
708.03	1118
708.081	1128
708.132	1090
708.184	1132
708.235	1138
708.287	1142
708.338	1112
708.389	1130
708.441	1114
708.492	1124
708.543	1118
708.595	1154
708.646	1116
708.697	1114
708.749	1122
708.8	1110
708.852	1110
708.903	1136
708.954	1108
709.006	1100
709.057	1136
709.108	1138
709.16	1082
709.211	1074
709.262	1124
709.314	1136
709.365	1096
709.416	1114
709.468	1116
709.519	1112
709.57	1140
709.622	1118
709.673	1116
709.725	1098
709.776	1108
709.827	1098
709.879	1100
709.93	1116
709.981	1152
710.033	1136
710.084	1118
710.135	1132
710.187	1116
710.238	1104
710.289	1080
710.341	1056
710.392	1128
710.443	1120
710.495	1110
710.546	1102
710.597	1102
710.649	1078
710.7	1110
710.751	1098
710.803	1100
710.854	1110
710.905	1110
710.957	1114
711.008	1072
711.059	1094
711.111	1096
711.162	1112
711.213	1094
711.265	1115.87
711.316	1088.12
711.367	1052.7
711.419	1079.74
711.47	1056.37
711.521	1080.21
711.573	1102.66
711.624	1095.19
711.675	1107.69
711.727	1088.52
711.778	1080.89
711.829	1079.62
711.881	1088.23
711.932	1120.11
711.983	1129.03
712.035	1110.79
712.086	1085.26
712.137	1105.19
712.189	1079.22
712.24	1074.81
712.291	1068.89
712.343	1074.82
712.394	1084.09
712.445	1068.03
712.496	1050.06
712.548	1082.56
712.599	1070.35
712.65	1077.53
712.702	1068.74
712.753	1058.39
712.804	1072.36
712.856	1072.86
712.907	1045.9
712.958	1054.4
713.01	1080.01
713.061	1030.2
713.112	1043.5
713.164	1047.49
713.215	1061.37
713.266	1055.43
713.317	1057.79
713.369	1060.1
713.42	1046.43
713.471	1043.11
713.523	1046.24
713.574	1062.64
713.625	1057.47
713.677	1052.13
713.728	1046.09
713.779	1022.85
713.831	1034.54
713.882	1042.01
713.933	1048.3
713.984	1039.76
714.036	1041.92
714.087	1035.07
714.138	1041.26
714.19	1036.27
714.241	1050.02
714.292	1024.74
714.343	1038.38
714.395	1035.33
714.446	1040.06
714.497	1048.8
714.549	1042.21
714.6	1022.85
714.651	1016.3
714.703	1028.27
714.754	1038.05
714.805	1027.23
714.856	1032.9
714.908	1057.62
714.959	1043.18
715.01	1027.43
715.062	1017.25
715.113	1008.45
715.164	1010.49
715.215	1006.37
715.267	1019.15
715.318	1019.16
715.369	1008.22
715.421	1014.79
715.472	1023.1
715.523	1005.52
715.574	996.424
715.626	1024.18
715.677	1026.41
715.728	1021.29
715.779	1038.06
715.831	1040.65
715.882	1030
715.933	1013.34
715.985	987.945
716.036	989.722
716.087	989.499
716.138	1014.79
716.19	992.69
716.241	1009.64
716.292	1012.22
716.343	1032.29
716.395	1010.88
716.433	996
716.485	1010
716.536	1020
716.588	1004
716.639	1010
716.691	1002
716.742	1008
716.794	1006
716.845	948
716.897	1006
716.948	986
717	980
717.052	1004
717.103	960
717.155	1006
717.206	1002
717.258	962
717.309	956
717.361	996
717.412	998
717.464	996
717.515	1012
717.567	996
717.618	1008
717.67	970
717.721	978
717.773	958
717.824	992
717.876	952
717.927	982
717.979	980
718.03	1002
718.082	984
718.133	974
718.185	962
718.237	944
718.288	966
718.34	962
718.391	976
718.443	1010
718.494	980
718.546	942
718.597	970
718.649	982
718.7	962
718.752	978
718.803	984
718.855	990
718.906	1000
718.958	972
719.009	986
719.061	970
719.112	934
719.164	952
719.215	972
719.267	968
719.318	954
719.37	960
719.421	972
719.473	978
719.524	976
719.576	970
719.627	954
719.679	956
719.73	968
719.782	952
719.833	922
719.885	964
719.936	966
719.988	974
720.039	948
720.091	946
720.142	946
720.194	970
720.245	936
720.297	936
720.348	944
720.4	940
720.451	942
720.503	948
720.554	944
720.606	908
720.657	942
720.709	942
720.76	932
720.812	942
720.863	906
720.915	952
720.966	934
721.018	920
721.069	920
721.121	936
721.172	938
721.224	940
721.275	950
721.327	922
721.378	906
721.43	940
721.481	924
721.532	914
721.584	932
721.635	922
721.687	938
721.738	936
721.79	918
721.841	898
721.893	904
721.944	922
721.996	912
722.047	944
722.099	910
722.15	888
722.202	922
722.253	926
722.305	880
722.356	888
722.408	926
722.459	904
722.511	924
722.562	898
722.614	914
722.665	870
722.716	900
722.768	952
722.819	904
722.871	914
722.922	876
722.974	894
723.025	846
723.077	930
723.128	908
723.18	906
723.231	888
723.283	854
723.334	866
723.386	868
723.437	878
723.488	882
723.54	864
723.591	876
723.643	916
723.694	892
723.746	874
723.797	866
723.849	880
723.9	894
723.952	882
724.003	878
724.055	892
724.106	906
724.157	872
724.209	856
724.26	886
724.312	856
724.363	856
724.415	904
724.466	898
724.518	874
724.569	874
724.621	874
724.672	882
724.723	848
724.775	856
724.826	840
724.878	854
724.929	834
724.981	868
725.032	840
725.084	860
725.135	868
725.187	854
725.238	834
725.289	882
725.341	888
725.392	866
725.444	882
725.495	846
725.547	826
725.598	830
725.65	836
725.701	862
725.752	860
725.804	848
725.855	842
725.907	836
725.958	872
726.01	850
726.061	828
726.112	850
726.164	838
726.215	854
726.267	850
726.318	866
726.37	840
726.421	836
726.473	830
726.524	886
726.575	838
726.627	842
726.678	864
726.73	848
726.781	846
726.833	852
726.884	848
726.935	830
726.987	840
727.038	832
727.09	832
727.141	840
727.193	830
727.244	802
727.295	846
727.347	824
727.398	826
727.45	840
727.501	824
727.552	802
727.604	844
727.655	822
727.707	838
727.758	850
727.81	822
727.861	838
727.912	818
727.964	842
728.015	848
728.067	810
728.118	832
728.17	812
728.221	840
728.272	792
728.324	816
728.375	798
728.427	800
728.478	776
728.529	846
728.581	826
728.632	816
728.684	838
728.735	822
728.786	806
728.838	822
728.889	822
728.941	786
728.992	844
729.044	832
729.095	820
729.146	812
729.198	814
729.249	798
729.301	804
729.352	776
729.403	796
729.455	784
729.506	802
729.558	782
729.609	796
729.66	762
729.712	772
729.763	774
729.815	778
729.866	796
729.917	768
729.969	794
730.02	768
730.072	798
730.123	762
730.174	764
730.226	786
730.277	792
730.329	796
730.38	782
730.431	778
730.483	766
730.534	780
730.586	778
730.637	772
730.688	774
730.74	760
730.791	746
730.842	774
730.894	760
730.945	796
730.997	794
731.048	772
731.099	760
731.151	780
731.202	772
731.254	776
731.305	752
731.356	770
731.408	740
731.459	764
731.51	762
731.562	754
731.613	780
731.665	742
731.716	784
731.767	758
731.819	760
731.87	798
731.922	744
731.973	778
732.024	740
732.076	752
732.127	744
732.178	768
732.23	758
732.281	728
732.333	756
732.384	754
732.435	760
732.487	768
732.538	744
732.589	758
732.641	762
732.692	746
732.744	768
732.795	750
732.846	752
732.898	758
732.949	736
733	740
733.052	768
733.103	752
733.154	746
733.206	774
733.257	754
733.309	738
733.36	748
733.411	760
733.463	728
733.514	756
733.565	738
733.617	724
733.668	762
733.719	764
733.771	756
733.822	752
733.873	742
733.925	740
733.976	732
734.028	740
734.079	738
734.13	758
734.182	730
734.233	764
734.284	770
734.336	738
734.387	724
734.438	722
734.49	742
734.541	746
734.592	758
734.644	750
734.695	766
734.747	778
734.798	740
734.849	754
734.901	754
734.952	772
735.003	736
735.055	754
735.106	722
735.157	756
735.209	754
735.26	786
735.311	744
735.363	754
735.414	768
735.465	780
735.517	740
735.568	764
735.619	730
735.671	744
735.722	764
735.773	770
735.825	766
735.876	776
735.927	778
735.979	778
736.03	780
736.081	780
736.133	764
736.184	766
736.235	780
736.287	792
736.338	788
736.389	772
736.441	774
736.492	758
736.543	754
736.595	786
736.646	776
736.697	784
736.749	774
736.8	798
736.851	812
736.903	814
736.954	806
737.005	826
737.057	814
737.108	798
737.159	816
737.211	780
737.262	800
737.313	788
737.365	828
737.416	822
737.467	806
737.518	798
737.57	818
737.621	816
737.672	830
737.724	826
737.775	818
737.826	814
737.878	816
737.929	816
737.98	828
738.032	846
738.083	842
738.134	800
738.186	832
738.237	832
738.288	834
738.339	784
738.391	828
738.442	820
738.493	828
738.545	808
738.596	842
738.647	824
738.699	822
738.75	792
738.801	830
738.853	826
738.904	786
738.955	814
739.006	812
739.058	822
739.109	824
739.16	816
739.212	796
739.263	814
739.314	790
739.366	784
739.417	804
739.468	794
739.519	776
739.571	790
739.622	792
739.673	758
739.725	776
739.776	796
739.827	798
739.878	774
739.93	758
739.981	736
740.032	770
740.084	764
740.135	742
740.186	754
740.237	752
740.289	756
740.34	750
740.391	758
740.443	762
740.494	762
740.545	746
740.596	762
740.648	756
740.699	752
740.75	724
740.802	776
740.853	732
740.904	742
740.956	716
741.007	724
741.058	714
741.109	714
741.161	716
741.212	752
741.263	702
741.314	690
741.366	716
741.417	728
741.468	698
741.52	744
741.571	726
741.622	714
741.673	714
741.725	720
741.776	714
741.827	730
741.878	678
741.93	690
741.981	676
742.032	686
742.083	730
742.135	684
742.186	676
742.237	696
742.289	684
742.34	700
742.391	684
742.442	698
742.494	688
742.545	702
742.596	674
742.647	680
742.699	688
742.75	670
742.801	690
742.852	666
742.904	668
742.955	666
743.006	700
743.057	676
743.109	708
743.16	660
743.211	670
743.263	680
743.314	672
743.365	678
743.416	646
743.468	684
743.519	678
743.57	658
743.621	662
743.672	680
743.724	668
743.775	646
743.826	668
743.878	648
743.929	662
743.98	658
744.031	678
744.083	666
744.134	632
744.185	626
744.236	660
744.287	668
744.339	640
744.39	670
744.441	668
744.492	664
744.544	660
744.595	634
744.646	628
744.697	634
744.749	666
744.8	648
744.851	640
744.902	682
744.954	650
745.005	656
745.056	644
745.107	618
745.159	644
745.21	614
745.261	598
745.312	638
745.363	606
745.415	644
745.466	646
745.517	664
745.568	634
745.62	650
745.671	638
745.722	630
745.773	602
745.824	630
745.876	636
745.927	620
745.978	640
746.029	618
746.081	624
746.132	630
746.183	630
746.234	606
746.285	592
746.337	642
746.388	610
746.439	632
746.49	644
746.542	626
746.593	620
746.644	596
746.695	614
746.746	576
746.798	636
746.849	626
746.9	636
746.951	600
747.003	620
747.054	620
747.105	596
747.156	602
747.207	626
747.259	602
747.31	626
747.361	612
747.412	616
747.463	608
747.515	618
747.566	600
747.617	616
747.668	616
747.719	612
747.771	610
747.822	582
747.873	608
747.924	618
747.975	636
748.027	596
748.078	590
748.129	598
748.18	622
748.231	620
748.283	606
748.334	616
748.385	602
748.436	582
748.487	578
748.539	580
748.59	574
748.641	622
748.692	600
748.743	630
748.795	604
748.846	596
748.897	626
748.948	592
748.999	594
749.05	624
749.102	606
749.153	598
749.204	586
749.255	582
749.306	606
749.358	576
749.409	600
749.46	572
749.511	580
749.562	588
749.614	596
749.665	590
749.716	596
749.767	572
749.818	592
749.869	588
749.921	590
749.972	604
750.023	600
750.074	598
750.125	578
750.177	570
750.228	574
750.279	614
750.33	584
750.381	588
750.432	584
750.484	578
750.535	588
750.586	586
750.637	610
750.688	602
750.739	550
750.791	558
750.842	572
750.893	566
750.944	580
750.995	570
751.046	550
751.098	564
751.149	554
751.2	574
751.251	566
751.302	544
751.353	572
751.404	574
751.456	556
751.507	570
751.558	560
751.609	564
751.66	554
751.711	584
751.763	580
751.814	550
751.865	582
751.916	572
751.967	556
752.018	560
752.07	566
752.121	574
752.172	568
752.223	560
752.274	544
752.325	572
752.376	564
752.428	556
752.479	560
752.53	560
752.581	554
752.632	552
752.683	558
752.734	572
752.786	570
752.837	576
752.888	540
752.939	526
752.99	548
753.041	554
753.092	520
753.144	540
753.195	564
753.246	562
753.297	540
753.348	528
753.399	536
753.45	550
753.502	564
753.553	548
753.604	526
753.655	546
753.706	534
753.757	550
753.808	538
753.859	536
753.911	564
753.962	538
754.013	544
754.064	544
754.115	562
754.166	534
754.217	564
754.269	550
754.32	542
754.371	548
754.422	520
754.473	558
754.524	528
754.575	548
754.626	540
754.678	544
754.729	538
754.78	526
754.831	522
754.882	546
754.933	524
754.984	536
755.035	530
755.086	532
755.138	522
755.189	526
755.24	532
755.291	536
755.342	534
755.393	536
755.444	532
755.495	526
755.547	542
755.598	524
755.649	540
755.7	510
755.751	518
755.802	512
755.853	516
755.904	534
755.955	510
756.006	524
756.058	542
756.109	508
756.16	526
756.211	508
756.262	524
756.313	512
756.364	516
756.415	500
756.466	518
756.518	528
756.569	524
756.62	520
756.671	484
756.722	524
756.773	514
756.824	496
756.875	520
756.926	524
756.977	506
757.029	530
757.08	492
757.131	510
757.182	500
757.233	518
757.284	500
757.335	510
757.386	502
757.437	518
757.488	518
757.539	498
757.59	510
757.642	492
757.693	472
757.744	500
757.795	500
757.846	504
757.897	472
757.948	506
757.999	494
758.05	516
758.101	494
758.152	488
758.203	484
758.255	490
758.306	500
758.357	496
758.408	474
758.459	488
758.51	496.048
758.561	519.804
758.612	511.684
758.663	482.539
758.714	464.994
758.765	471.137
758.816	496.773
758.867	494.855
758.919	490.591
758.97	491.848
759.021	491.062
759.072	489.128
759.123	493.223
759.174	488.361
759.225	494.044
759.276	497.675
759.327	494.653
759.378	486.35
759.429	483.275
759.48	492.799
759.531	485.734
759.582	472.403
759.633	473.445
759.685	490.001
759.736	487.114
759.787	454.304
759.838	473.889
759.889	489.842
759.94	477.985
759.991	477.695
760.042	473.087
760.093	470.765
760.144	475.039
760.195	464.227
760.246	476.419
760.297	485.824
760.348	469.038
760.399	474.913
760.45	470.629
760.501	473.731
760.552	474.214
760.603	474.896
760.655	468.166
760.706	484.465
760.757	465.616
760.808	457.291
760.859	462.176
760.91	472.97
760.961	470.032
761.012	454.023
761.063	485.694
761.114	456.058
761.165	467.941
761.216	470.34
761.267	472.493
761.318	457.48
761.369	467.729
761.42	452.015
761.471	461.542
761.522	465.921
761.573	453.935
761.624	465.911
761.675	462.324
761.726	447.343
761.777	457.447
761.828	474.097
761.88	444.667
761.931	460.244
761.982	449.223
762.033	450.58
762.084	454.093
762.135	448.487
762.186	464.979
762.237	457.022
762.288	460.581
762.339	455.504
762.39	463.161
762.441	452.615
762.492	465.716
762.543	457.718
762.594	461.476
762.645	446.413
762.696	444.532
762.747	443.637
762.798	438.741
762.849	443.233
762.9	438.608
762.951	438.853
763.002	448.538
763.053	451.396
763.104	460.146
763.155	449.029
763.206	446.352
763.257	443.151
763.308	430.898
763.359	441.446
763.41	443.493
763.461	450.117
763.512	450.307
763.563	447.503
763.614	455.234
763.665	441.562
763.678	436
763.729	448
763.78	456
763.832	428
763.883	444
763.934	432
763.986	428
764.037	426
764.088	454
764.139	420
764.191	430
764.242	422
764.293	424
764.345	422
764.396	406
764.447	416
764.498	440
764.55	422
764.601	440
764.652	438
764.704	440
764.755	416
764.806	420
764.857	436
764.909	444
764.96	410
765.011	426
765.062	438
765.114	450
765.165	432
765.216	436
765.268	428
765.319	424
765.37	416
765.421	434
765.473	414
765.524	416
765.575	428
765.626	420
765.678	432
765.729	404
765.78	420
765.831	408
765.883	414
765.934	422
765.985	416
766.036	430
766.088	414
766.139	410
766.19	428
766.242	402
766.293	412
766.344	414
766.395	410
766.447	418
766.498	426
766.549	404
766.6	408
766.652	410
766.703	426
766.754	404
766.805	414
766.857	410
766.908	406
766.959	420
767.01	424
767.062	408
767.113	426
767.164	420
767.215	414
767.267	418
767.318	428
767.369	406
767.42	406
767.472	404
767.523	400
767.574	412
767.625	398
767.677	410
767.728	396
767.779	418
767.83	400
767.882	402
767.933	386
767.984	392
768.035	396
768.087	418
768.138	412
768.189	410
768.24	412
768.292	402
768.343	390
768.394	406
768.445	390
768.497	392
768.548	370
768.599	394
768.65	384
768.701	390
768.753	398
768.804	396
768.855	396
768.906	402
768.958	404
769.009	400
769.06	390
769.111	394
769.163	388
769.214	402
769.265	386
769.316	376
769.367	386
769.419	372
769.47	386
769.521	392
769.572	378
769.624	396
769.675	394
769.726	370
769.777	368
769.828	386
769.88	376
769.931	356
769.982	390
770.033	382
770.085	396
770.136	372
770.187	382
770.238	372
770.289	386
770.341	376
770.392	388
770.443	382
770.494	378
770.546	366
770.597	380
770.648	368
770.699	356
770.75	366
770.802	366
770.853	386
770.904	386
770.955	356
771.006	372
771.058	374
771.109	374
771.16	368
771.211	368
771.263	370
771.314	376
771.365	368
771.416	366
771.467	362
771.519	386
771.57	370
771.621	372
771.672	370
771.723	352
771.775	366
771.826	358
771.877	366
771.928	364
771.979	364
772.031	362
772.082	358
772.133	356
772.184	346
772.235	366
772.287	350
772.338	382
772.389	350
772.44	360
772.491	338
772.543	356
772.594	332
772.645	364
772.696	358
772.747	366
772.799	350
772.85	354
772.901	366
772.952	332
773.003	336
773.055	344
773.106	348
773.157	356
773.208	348
773.259	336
773.31	352
773.362	356
773.413	368
773.464	354
773.515	344
773.566	326
773.618	362
773.669	352
773.72	354
773.771	340
773.822	340
773.873	334
773.925	334
773.976	338
774.027	346
774.078	334
774.129	338
774.18	338
774.232	346
774.283	348
774.334	326
774.385	354
774.436	316
774.488	350
774.539	348
774.59	340
774.641	350
774.692	346
774.743	318
774.795	336
774.846	344
774.897	348
774.948	326
774.999	346
775.05	340
775.102	344
775.153	326
775.204	328
775.255	326
775.306	334
775.357	330
775.409	320
775.46	310
775.511	336
775.562	320
775.613	342
775.664	324
775.716	322
775.767	332
775.818	328
775.869	310
775.92	322
775.971	340
776.023	328
776.074	320
776.125	314
776.176	330
776.227	310
776.278	322
776.329	306
776.381	320
776.432	308
776.483	334
776.534	318
776.585	326
776.636	298
776.688	314
776.739	318
776.79	302
776.841	342
776.892	326
776.943	324
776.994	304
777.046	322
777.097	310
777.148	310
777.199	316
777.25	302
777.301	320
777.352	310
777.404	298
777.455	322
777.506	304
777.557	302
777.608	312
777.659	314
777.71	318
777.762	306
777.813	308
777.864	314
777.915	308
777.966	290
778.017	330
778.068	294
778.12	310
778.171	306
778.222	314
778.273	316
778.324	316
778.375	306
778.426	314
778.477	316
778.529	288
778.58	284
778.631	296
778.682	298
778.733	294
778.784	312
778.835	306
778.886	286
778.938	314
778.989	300
779.04	298
779.091	278
779.142	304
779.193	302
779.244	298
779.295	312
779.347	296
779.398	302
779.449	282
779.5	298
779.551	298
779.602	316
779.653	304
779.704	294
779.755	280
779.807	308
779.858	284
779.909	294
779.96	296
780.011	296
780.062	314
780.113	280
780.164	298
780.216	290
780.267	292
780.318	276
780.369	296
780.42	276
780.471	278
780.522	294
780.573	292
780.624	296
780.675	294
780.727	292
780.778	294
780.829	278
780.88	284
780.931	288
780.982	282
781.033	294
781.084	274
781.135	284
781.187	292
781.238	288
781.289	298
781.34	274
781.391	264
781.442	290
781.493	296
781.544	278
781.595	282
781.646	290
781.698	276
781.749	294
781.8	292
781.851	276
781.902	294
781.953	288
782.004	270
782.055	286
782.106	280
782.157	264
782.208	278
782.26	262
782.311	264
782.362	280
782.413	278
782.464	274
782.515	262
782.566	256
782.617	276
782.668	270
782.719	276
782.77	270
782.821	252
782.872	262
782.924	276
782.975	290
783.026	274
783.077	274
783.128	258
783.179	264
783.23	270
783.281	262
783.332	270
783.383	268
783.434	266
783.485	276
783.536	266
783.588	288
783.639	254
783.69	268
783.741	272
783.792	280
783.843	272
783.894	270
783.945	248
783.996	272
784.047	264
784.098	266
784.149	260
784.2	244
784.252	260
784.303	270
784.354	240
784.405	268
784.456	260
784.507	256
784.558	278
784.609	270
784.66	262
784.711	260
784.762	230
784.813	280
784.864	240
784.915	260
784.966	248
785.017	252
785.068	250
785.12	252
785.171	258
785.222	250
785.273	258
785.324	264
785.375	238
785.426	246
785.477	226
785.528	254
785.579	256
785.63	248
785.681	250
785.732	252
785.783	264
785.834	248
785.885	256
785.936	246
785.987	242
786.038	254
786.089	246
786.141	260
786.192	252
786.243	250
786.294	248
786.345	248
786.396	234
786.447	230
786.498	240
786.549	252
786.6	252
786.651	242
786.702	252
786.753	244
786.804	262
786.855	246
786.906	242
786.957	250
787.008	242
787.059	238
787.11	254
787.161	240
787.212	252
787.263	256
787.314	228
787.365	240
787.416	252
787.467	224
787.518	234
787.57	230
787.621	232
787.672	232
787.723	224
787.774	220
787.825	248
787.876	214
787.927	232
787.978	238
788.029	242
788.08	244
788.131	234
788.182	228
788.233	246
788.284	236
788.335	222
788.386	236
788.437	232
788.488	250
788.539	232
788.59	248
788.641	236
788.692	238
788.743	220
788.794	224
788.845	226
788.896	234
788.947	230
788.998	230
789.049	220
789.1	240
789.151	238
789.202	242
789.253	240
789.304	228
789.355	218
789.406	236
789.457	226
789.508	242
789.559	232
789.61	224
789.661	222
789.712	220
789.763	210
789.814	242
789.865	216
789.916	230
789.967	238
790.018	218
790.069	226
790.12	220
790.171	236
790.222	232
790.273	226
790.324	230
790.375	220
790.426	212
790.477	216
790.528	224
790.579	222
790.63	218
790.681	232
790.732	224
790.783	212
790.834	238
790.885	222
790.936	218
790.987	236
791.038	226
791.089	208
791.14	218
791.191	218
791.242	226
791.293	226
791.344	194
791.395	216
791.446	214
791.497	216
791.548	202
791.599	218
791.65	214
791.701	204
791.752	218
791.803	226
791.854	208
791.905	228
791.956	202
792.007	232
792.058	210
792.109	226
792.16	206
792.211	204
792.262	220
792.313	204
792.363	216
792.414	204
792.465	210
792.516	210
792.567	226
792.618	206
792.669	210
792.72	200
792.771	214
792.822	198
792.873	214
792.924	198
792.975	200
793.026	230
793.077	208
793.128	206
793.179	208
793.23	202
793.281	224
793.332	210
793.383	196
793.434	202
793.485	204
793.536	190
793.587	192
793.638	184
793.689	218
793.74	188
793.79	196
793.841	180
793.892	206
793.943	208
793.994	204
794.045	204
794.096	218
794.147	204
794.198	208
794.249	198
794.3	198
794.351	218
794.402	194
794.453	194
794.504	198
794.555	204
794.606	188
794.657	188
794.708	206
794.758	206
794.809	188
794.86	190
794.911	200
794.962	188
795.013	184
795.064	200
795.115	198
795.166	200
795.217	198
795.268	200
795.319	208
795.37	196
795.421	194
795.472	206
795.523	200
795.573	196
795.624	206
795.675	198
795.726	210
795.777	208
795.828	192
795.879	196
795.93	192
795.981	198
796.032	190
796.083	172
796.134	180
796.185	192
796.236	198
796.286	192
796.337	178
796.388	178
796.439	202
796.49	182
796.541	196
796.592	194
796.643	182
796.694	198
796.745	190
796.796	184
796.847	192
796.897	194
796.948	174
796.999	186
797.05	190
797.101	190
797.152	188
797.203	188
797.254	188
797.305	170
797.356	188
797.407	190
797.458	192
797.508	198
797.559	188
797.61	190
797.661	188
797.712	178
797.763	176
797.814	162
797.865	182
797.916	176
797.967	186
798.018	178
798.068	182
798.119	180
798.17	188
798.221	184
798.272	176
798.323	182
798.374	174
798.425	186
798.476	164
798.526	182
798.577	178
798.628	190
798.679	180
798.73	184
798.781	182
798.832	166
798.883	174
798.934	182
798.984	166
799.035	170
799.086	170
799.137	186
799.188	178
799.239	174
799.29	188
799.341	186
799.392	168
799.443	182
799.493	188
799.544	192
799.595	158
799.646	180
799.697	180
799.748	180
799.799	186
799.85	186
799.9	166
799.951	170
800.002	170
800.053	180
800.104	162
800.155	178
800.206	154
800.257	182
800.307	174
800.358	176
800.409	172
800.46	174
800.511	176
800.562	176
800.613	180
800.664	174
800.714	156
800.765	156
800.816	164
800.867	156
800.918	182
800.969	172
801.02	156
801.07	170
801.121	168
801.172	180
801.223	166
801.274	160
801.325	178
801.376	170
801.427	162
801.477	168
801.528	170
801.579	182
801.63	166
801.681	166
801.732	152
801.783	180
801.833	162
801.884	154
801.935	156
801.986	160
802.037	172
802.088	170
802.139	162
802.189	164
802.24	174
802.291	162
802.342	150
802.393	158
802.444	144
802.495	152
802.545	160
802.596	152
802.647	186
802.698	168
802.749	170
802.8	164
802.85	168
802.901	160
802.952	146
803.003	156
803.054	152
803.105	160
803.155	160
803.206	140
803.257	154
803.308	154
803.359	152
803.41	164
803.46	156
803.511	166
803.562	156
803.613	152
803.664	158
803.715	152
803.765	140
803.816	144
803.867	158
803.918	156
803.969	154
804.02	164
804.07	162
804.121	160
804.172	144
804.223	158
804.274	152
804.325	158
804.375	164
804.426	148
804.477	158
804.528	164
804.579	142
804.63	136
804.68	144
804.731	146
804.782	146
804.833	140
804.884	162
804.934	162
804.985	148
805.036	154
805.087	140
805.138	146
805.188	152
805.239	138
805.29	144
805.341	146
805.392	152
805.443	160
805.493	153.943
805.544	151.807
805.595	141.951
805.646	151.588
805.697	151.622
805.747	127.232
805.798	141.199
805.849	138.461
805.9	140.654
805.951	157.84
806.001	143.464
806.052	133.786
806.103	160.616
806.154	142.114
806.205	158.72
806.255	156.739
806.306	147.618
806.357	148.262
806.408	146.058
806.459	143.138
806.509	151.84
806.56	142.593
806.611	138
806.662	141.064
806.713	151.365
806.763	143.975
806.814	141.35
806.865	141.738
806.916	147.509
806.967	143.46
807.017	145.954
807.068	151.244
807.119	142.604
807.17	148.657
807.22	135.218
807.271	147.948
807.322	134.037
807.373	141.286
807.424	142.502
807.474	133.146
807.525	138.372
807.576	148.371
807.627	130.031
807.678	144.479
807.728	135.175
807.779	136.982
807.83	140.552
807.881	141.15
807.931	137.161
807.982	147.28
808.033	133.763
808.084	143.476
808.135	138.8
808.185	141.902
808.236	139.911
808.287	147.846
808.338	139.748
808.388	134.476
808.439	144.678
808.49	132.348
808.541	136.373
808.591	135.547
808.642	132.257
808.693	137.188
808.744	129.363
808.795	141.013
808.845	142.336
808.896	136.676
808.947	139.295
808.998	130.351
809.048	137.757
809.099	137.317
809.15	131.475
809.201	138.316
809.251	140.171
809.302	138.317
809.353	139.054
809.404	135.645
809.454	139.423
809.505	134.914
809.556	138.108
809.607	132.771
809.658	133.988
809.708	131.096
809.759	129.116
809.81	134.909
809.861	139.023
809.911	125.766
809.962	128.161
810.013	146.86
810.064	132.022
810.114	129.527
810.165	139.842
810.216	133.263
810.267	123.734
810.317	130.958
810.368	118.866
810.419	134.357
810.469	126.98
810.52	122.654
810.571	120.458
810.622	127.181
810.627	128
810.678	138
810.729	120
810.78	122
810.831	128
810.882	132
810.933	126
810.984	132
811.035	128
811.086	152
811.137	130
811.188	128
811.239	130
811.29	132
811.341	132
811.392	132
811.443	126
811.494	140
811.545	130
811.596	142
811.648	118
811.699	112
811.75	116
811.801	112
811.852	126
811.903	150
811.954	130
812.005	116
812.056	114
812.107	124
812.158	122
812.209	128
812.26	124
812.311	142
812.362	122
812.413	128
812.464	122
812.515	136
812.566	124
812.617	112
812.668	106
812.719	132
812.77	126
812.821	124
812.872	108
812.923	132
812.974	120
813.025	140
813.076	124
813.127	142
813.178	132
813.229	118
813.28	112
813.331	120
813.382	118
813.433	114
813.484	118
813.535	124
813.586	124
813.637	132
813.688	118
813.739	132
813.79	128
813.841	128
813.892	116
813.943	130
813.994	120
814.045	122
814.096	130
814.147	116
814.198	128
814.249	118
814.3	100
814.351	124
814.402	126
814.453	110
814.504	126
814.555	124
814.606	116
814.657	108
814.708	112
814.759	114
814.81	126
814.861	120
814.912	110
814.963	116
815.014	124
815.065	128
815.116	118
815.167	118
815.217	116
815.268	112
815.319	112
815.37	126
815.421	128
815.472	126
815.523	114
815.574	114
815.625	122
815.676	98
815.727	116
815.778	118
815.829	114
815.88	106
815.931	108
815.982	114
816.033	106
816.084	118
816.135	108
816.186	114
816.237	122
816.288	118
816.339	116
816.39	118
816.441	116
816.492	122
816.543	98
816.594	112
816.645	118
816.696	118
816.747	106
816.798	108
816.849	118
816.9	126
816.951	114
817.001	114
817.052	108
817.103	116
817.154	110
817.205	116
817.256	114
817.307	118
817.358	114
817.409	122
817.46	112
817.511	110
817.562	106
817.613	112
817.664	116
817.715	120
817.766	100
817.817	112
817.868	112
817.919	106
817.97	104
818.021	118
818.071	98
818.122	116
818.173	100
818.224	118
818.275	122
818.326	120
818.377	104
818.428	116
818.479	116
818.53	118
818.581	106
818.632	112
818.683	106
818.734	108
818.785	126
818.836	112
818.887	106
818.938	120
818.988	100
819.039	106
819.09	96
819.141	110
819.192	98
819.243	106
819.294	104
819.345	108
819.396	108
819.447	106
819.498	108
819.549	102
819.6	106
819.651	110
819.702	106
819.753	112
819.803	98
819.854	114
819.905	102
819.956	112
820.007	110
820.058	104
820.109	112
820.16	108
820.211	100
820.262	120
820.313	118
820.364	92
820.415	88
820.465	98
820.516	110
820.567	102
820.618	104
820.669	106
820.72	104
820.771	102
820.822	106
820.873	100
820.924	106
820.975	104
821.026	98
821.076	100
821.127	102
821.178	98
821.229	110
821.28	104
821.331	96
821.382	98
821.433	96
821.484	98
821.535	100
821.586	108
821.637	106
821.687	98
821.738	94
821.789	106
821.84	102
821.891	100
821.942	98
821.993	104
822.044	110
822.095	100
822.146	94
822.196	106
822.247	106
822.298	110
822.349	92
822.4	106
822.451	104
822.502	94
822.553	102
822.604	106
822.655	100
822.706	96
822.756	106
822.807	94
822.858	108
822.909	92
822.96	104
823.011	108
823.062	96
823.113	94
823.164	108
823.214	96
823.265	110
823.316	98
823.367	98
823.418	96
823.469	96
823.52	92
823.571	102
823.622	94
823.672	108
823.723	106
823.774	100
823.825	104
823.876	90
823.927	96
823.978	100
824.029	76
824.08	100
824.13	92
824.181	98
824.232	94
824.283	84
824.334	98
824.385	96
824.436	80
824.487	100
824.537	88
824.588	94
824.639	92
824.69	96
824.741	100
824.792	94
824.843	92
824.893	98
824.944	90
824.995	94
825.046	86
825.097	104
825.148	106
825.199	80
825.25	100
825.3	92
825.351	102
825.402	92
825.453	92
825.504	92
825.555	96
825.606	92
825.657	106
825.707	88
825.758	100
825.809	88
825.86	96
825.911	92
825.962	100
826.013	88
826.063	108
826.114	88
826.165	92
826.216	94
826.267	90
826.318	94
826.369	100
826.419	96
826.47	94
826.521	92
826.572	86
826.623	80
826.674	94
826.725	94
826.775	98
826.826	78
826.877	90
826.928	90
826.979	92
827.03	88
827.08	96
827.131	92
827.182	100
827.233	90
827.284	92
827.335	94
827.386	86
827.436	88
827.487	96
827.538	94
827.589	90
827.64	90
827.691	92
827.741	88
827.792	96
827.843	96
827.894	86
827.945	88
827.996	90
828.046	82
828.097	94
828.148	96
828.199	76
828.25	90
828.301	88
828.351	98
828.402	82
828.453	86
828.504	98
828.555	86
828.606	82
828.656	92
828.707	80
828.758	90
828.809	88
828.86	86
828.911	88
828.961	92
829.012	78
829.063	90
829.114	78
829.165	92
829.216	86
829.266	84
829.317	88
829.368	78
829.419	94
829.47	96
829.52	76
829.571	88
829.622	82
829.673	86
829.724	90
829.774	86
829.825	92
829.876	82
829.927	78
829.978	90
830.029	86
830.079	86
830.13	86
830.181	78
830.232	100
830.283	76
830.333	82
830.384	90
830.435	78
830.486	82
830.537	84
830.587	98
830.638	84
830.689	84
830.74	86
830.791	84
830.841	86
830.892	84
830.943	68
830.994	92
831.045	84
831.095	76
831.146	82
831.197	82
831.248	94
831.299	80
831.349	84
831.4	86
831.451	90
831.502	92
831.553	90
831.603	84
831.654	96
831.705	86
831.756	88
831.807	76
831.857	88
831.908	72
831.959	82
832.01	76
832.061	82
832.111	80
832.162	80
832.213	90
832.264	90
832.315	78
832.365	84
832.416	82
832.467	84
832.518	78
832.568	86
832.619	84
832.67	88
832.721	88
832.772	86
832.822	80
832.873	92
832.924	78
832.975	88
833.025	82
833.076	88
833.127	78
833.178	76
833.229	74
833.279	88
833.33	74
833.381	84
833.432	74
833.482	92
833.533	88
833.584	68
833.635	86
833.685	84
833.736	88
833.787	72
833.838	86
833.889	80
833.939	80
833.99	78
834.041	78
834.092	80
834.142	78
834.193	80
834.244	78
834.295	70
834.345	82
834.396	82
834.447	88
834.498	84
834.548	88
834.599	80
834.65	66
834.701	84
834.751	80
834.802	90
834.853	72
834.904	74
834.954	76
835.005	82
835.056	74
835.107	84
835.157	84
835.208	80
835.259	68
835.31	74
835.36	82
835.411	68
835.462	74
835.513	80
835.563	92
835.614	76
835.665	68
835.716	76
835.766	84
835.817	76
835.868	78
835.919	88
835.969	82
836.02	88
836.071	68
836.122	78
836.172	88
836.223	70
836.274	78
836.325	72
836.375	78
836.426	74
836.477	80
836.528	70
836.578	72
836.629	66
836.68	72
836.73	66
836.781	78
836.832	72
836.883	76
836.933	72
836.984	78
837.035	76
837.086	82
837.136	88
837.187	82
837.238	84
837.288	66
837.339	80
837.39	76
837.441	78
837.491	80
837.542	72
837.593	74
837.643	76
837.694	80
837.745	62
837.796	84
837.846	80
837.897	78
837.948	68
837.999	82
838.049	72
838.1	76
838.151	76
838.201	78
838.252	68
838.303	76
838.354	74
838.404	74
838.455	76
838.506	68
838.556	78
838.607	82
838.658	76
838.708	78
838.759	72
838.81	64
838.861	80
838.911	78
838.962	64
839.013	76
839.063	66
839.114	70
839.165	76
839.216	78
839.266	64
839.317	76
839.368	60
839.418	74
839.469	74
839.52	72
839.57	66
839.621	68
839.672	80
839.722	68
839.773	76
839.824	68
839.875	70
839.925	72
839.976	70
840.027	68
840.077	74
840.128	74
840.179	64
840.229	74
840.28	70
840.331	68
840.381	80
840.432	64
840.483	84
840.534	76
840.584	84
840.635	68
840.686	78
840.736	82
840.787	68
840.838	64
840.888	68
840.939	60
840.99	66
841.04	74
841.091	78
841.142	80
841.192	60
841.243	74
841.294	74
841.344	72
841.395	72
841.446	68
841.496	76
841.547	68
841.598	74
841.648	66
841.699	72
841.75	68
841.8	80
841.851	74
841.902	70
841.952	62
842.003	62
842.054	76
842.104	64
842.155	62
842.206	72
842.256	78
842.307	76
842.358	74
842.408	60
842.459	74
842.51	72
842.56	56
842.611	70
842.662	78
842.712	72
842.763	66
842.814	72
842.864	68
842.915	72
842.966	66
843.016	66
843.067	66
843.118	70
843.168	72
843.219	68
843.269	68
843.32	76
843.371	72
843.421	70
843.472	66
843.523	68
843.573	72
843.624	68
843.675	74
843.725	66
843.776	66
843.827	66
843.877	66
843.928	70
843.979	60
844.029	68
844.08	70
844.13	68
844.181	58
844.232	68
844.282	58
844.333	62
844.384	78
844.434	76
844.485	66
844.536	68
844.586	64
844.637	64
844.687	74
844.738	64
844.789	68
844.839	72
844.89	60
844.941	64
844.991	76
845.042	68
845.092	68
845.143	64
845.194	72
845.244	68
845.295	62
845.346	62
845.396	70
845.447	74
845.497	64
845.548	66
845.599	68
845.649	70
845.7	68
845.75	58
845.801	64
845.852	68
845.902	66
845.953	66
846.004	62
846.054	58
846.105	60
846.155	66
846.206	70
846.257	74
846.307	68
846.358	66
846.409	70
846.459	62
846.51	62
846.56	62
846.611	70
846.661	70
846.712	64
846.763	62
846.813	68
846.864	64
846.915	60
846.965	52
847.016	70
847.066	78
847.117	60
847.168	66
847.218	66
847.269	62
847.319	66
847.37	66
847.421	64
847.471	66
847.522	56
847.572	64
847.623	64
847.674	70
847.724	62
847.775	68
847.825	60
847.876	72
847.926	60
847.977	64
848.028	60
848.078	56
848.129	62
848.179	64
848.23	58
848.281	60
848.331	60
848.382	64
848.432	60
848.483	70
848.534	60
848.584	54
848.635	62
848.685	64
848.736	70
848.786	68
848.837	62
848.888	72
848.938	62
848.989	58
849.039	64
849.09	64
849.14	62
849.191	60
849.242	52
849.292	64
849.343	68
849.393	66
849.444	60
849.494	60
849.545	68
849.596	62
849.646	60
849.697	64
849.747	64
849.798	66
849.848	58
849.899	58
849.95	72
850	64
850.051	58
850.101	68
850.152	62
850.202	54
850.253	60
850.303	66
850.354	62
850.405	54
850.455	62
850.506	54
850.556	66
850.607	56
850.657	56
850.708	64
850.758	64
850.809	60
850.86	58
850.91	60
850.961	68
851.011	68
851.062	56
851.112	62
851.163	54
851.213	62
851.264	54
851.314	54
851.365	62
851.416	60
851.466	64
851.517	62
851.567	62
851.618	62
851.668	66
851.719	64
851.769	58
851.82	60
851.87	58
851.921	56
851.971	62
852.022	66
852.073	58
852.123	52
852.174	58
852.224	52
852.275	56
852.325	54.0194
852.376	63.8515
852.426	54.0981
852.477	54.004
852.527	56.2685
852.578	56.1108
852.628	54.5194
852.679	59.2576
852.729	52.6677
852.78	62.9267
852.831	60.0318
852.881	55.5687
852.932	56.7049
852.982	59.5733
853.033	59.5176
853.083	56
853.134	58.2911
853.184	60.6681
853.235	53.6562
853.285	51.1109
853.336	57.214
853.386	60.6723
853.437	56.8972
853.487	52.3751
853.538	53.3163
853.588	56.1853
853.639	65.0375
853.689	63.0367
853.74	57.4195
853.79	63.41
853.841	58.3246
853.891	59.7435
853.942	50.6
853.992	59.99
854.043	59.7761
854.093	53.2863
854.144	52.2246
854.194	57.6951
854.245	59.1726
854.295	58.9229
854.346	48.0461
854.396	48.8332
854.447	57.3128
854.497	52.009
854.548	57.5272
854.598	54.2308
854.649	53.8538
854.699	56.3752
854.75	53.062
854.8	60.019
854.851	60.7939
854.901	52.9082
854.952	55.6211
855.002	52.2906
855.053	61.1516
855.103	57.6611
855.154	49.0438
855.204	52.6841
855.255	58.6095
855.305	53.9333
855.356	57.58
855.406	53.6203
855.457	54.75
855.507	54.73
855.558	50.5703
855.608	53.247
855.659	58.67
855.709	56.4582
855.76	52.52
855.81	53.8089
855.861	59.1059
855.911	53.9259
855.962	51.65
856.012	54.8765
856.063	54.9281
856.113	52.2724
856.164	52.0089
856.214	51.8129
856.265	54.2642
856.315	54.6708
856.366	49.1456
856.416	51.7193
856.467	57.6758
856.517	51.3878
856.568	48.0017
856.618	53.0239
856.668	62.6369
856.719	57.9017
856.769	50.69
856.82	49.7006
856.87	52.3068
856.921	53.4118
856.971	49.9956
857.022	46.2757
857.072	46.7337
857.123	52.2406
857.173	56.7109
857.224	57.65
857.274	58.9487
857.325	58.1679
857.352	56
857.403	52
857.453	54
857.504	58
857.555	54
857.606	48
857.656	56
857.707	58
857.758	56
857.809	52
857.859	54
857.91	56
857.961	54
858.012	46
858.063	48
858.113	58
858.164	56
858.215	50
858.266	54
858.316	46
858.367	60
858.418	50
858.469	66
858.519	58
858.57	62
858.621	48
858.672	46
858.722	64
858.773	54
858.824	50
858.875	48
858.925	48
858.976	48
859.027	58
859.078	48
859.128	62
859.179	54
859.23	50
859.281	60
859.331	58
859.382	60
859.433	56
859.483	48
859.534	54
859.585	60
859.636	42
859.686	50
859.737	58
859.788	52
859.839	58
859.889	50
859.94	62
859.991	58
860.042	50
860.092	44
860.143	48
860.194	56
860.245	58
860.295	46
860.346	52
860.397	56
860.447	46
860.498	54
860.549	58
860.6	58
860.65	60
860.701	48
860.752	56
860.802	56
860.853	54
860.904	42
860.955	48
861.005	54
861.056	56
861.107	60
861.158	52
861.208	52
861.259	46
861.31	52
861.36	62
861.411	62
861.462	44
861.513	56
861.563	50
861.614	56
861.665	50
861.715	50
861.766	44
861.817	50
861.868	56
861.918	50
861.969	50
862.02	52
862.07	42
862.121	44
862.172	50
862.223	52
862.273	48
862.324	52
862.375	50
862.425	62
862.476	46
862.527	52
862.577	40
862.628	52
862.679	50
862.73	54
862.78	52
862.831	54
862.882	52
862.932	46
862.983	48
863.034	50
863.084	52
863.135	48
863.186	48
863.237	54
863.287	52
863.338	52
863.389	56
863.439	50
863.49	52
863.541	44
863.591	44
863.642	56
863.693	58
863.744	48
863.794	40
863.845	52
863.896	54
863.946	48
863.997	56
864.048	54
864.098	48
864.149	50
864.2	50
864.25	52
864.301	48
864.352	56
864.402	40
864.453	58
864.504	54
864.555	52
864.605	48
864.656	50
864.707	54
864.757	48
864.808	44
864.859	52
864.909	50
864.96	48
865.011	44
865.061	48
865.112	56
865.163	42
865.213	32
865.264	48
865.315	40
865.365	54
865.416	38
865.467	48
865.517	52
865.568	52
865.619	54
865.669	54
865.72	44
865.771	40
865.821	46
865.872	52
865.923	46
865.973	52
866.024	52
866.075	50
866.125	54
866.176	60
866.227	46
866.277	50
866.328	54
866.379	54
866.429	40
866.48	46
866.531	48
866.581	46
866.632	52
866.683	54
866.733	50
866.784	58
866.835	50
866.885	50
866.936	52
866.987	52
867.037	48
867.088	44
867.138	48
867.189	54
867.24	46
867.29	42
867.341	48
867.392	50
867.442	48
867.493	46
867.544	54
867.594	52
867.645	52
867.696	42
867.746	56
867.797	60
867.848	48
867.898	46
867.949	54
867.999	50
868.05	52
868.101	44
868.151	46
868.202	48
868.253	50
868.303	38
868.354	46
868.405	54
868.455	44
868.506	48
868.556	50
868.607	48
868.658	56
868.708	40
868.759	52
868.81	54
868.86	60
868.911	44
868.961	50
869.012	48
869.063	46
869.113	40
869.164	46
869.215	50
869.265	44
869.316	48
869.367	44
869.417	52
869.468	50
869.518	48
869.569	58
869.62	54
869.67	44
869.721	48
869.771	44
869.822	52
869.873	56
869.923	46
869.974	36
870.025	50
870.075	48
870.126	48
870.176	42
870.227	42
870.278	46
870.328	42
870.379	42
870.43	50
870.48	54
870.531	38
870.581	52
870.632	52
870.683	50
870.733	46
870.784	42
870.834	50
870.885	46
870.936	44
870.986	32
871.037	38
871.087	48
871.138	40
871.189	48
871.239	48
871.29	44
871.34	44
871.391	40
871.442	48
871.492	46
871.543	52
871.593	42
871.644	48
871.695	54
871.745	34
871.796	48
871.846	46
871.897	46
871.948	46
871.998	36
872.049	46
872.099	44
872.15	50
872.201	40
872.251	48
872.302	48
872.352	46
872.403	40
872.453	42
872.504	40
872.555	52
872.605	36
872.656	46
872.706	52
872.757	44
872.808	42
872.858	48
872.909	52
872.959	46
873.01	44
873.06	38
873.111	44
873.162	50
873.212	38
873.263	40
873.313	48
873.364	50
873.415	40
873.465	38
873.516	42
873.566	44
873.617	38
873.667	40
873.718	52
873.769	52
873.819	42
873.87	42
873.92	50
873.971	52
874.021	46
874.072	58
874.123	46
874.173	60
874.224	48
874.274	42
874.325	46
874.375	50
874.426	36
874.477	52
874.527	42
874.578	46
874.628	42
874.679	38
874.729	44
874.78	48
874.83	36
874.881	44
874.932	50
874.982	46
875.033	50
875.083	38
875.134	50
875.184	48
875.235	44
875.285	38
875.336	48
875.387	50
875.437	46
875.488	40
875.538	46
875.589	46
875.639	40
875.69	32
875.74	46
875.791	56
875.841	46
875.892	38
875.943	46
875.993	44
876.044	48
876.094	38
876.145	52
876.195	50
876.246	50
876.296	42
876.347	50
876.397	44
876.448	44
876.499	42
876.549	42
876.6	44
876.65	46
876.701	40
876.751	42
876.802	42
876.852	46
876.903	40
876.953	44
877.004	44
877.054	50
877.105	38
877.155	44
877.206	46
877.257	48
877.307	36
877.358	42
877.408	50
877.459	38
877.509	36
877.56	42
877.61	50
877.661	44
877.711	38
877.762	36
877.812	52
877.863	46
877.913	36
877.964	40
878.014	58
878.065	54
878.115	40
878.166	48
878.216	42
878.267	44
878.318	36
878.368	44
878.419	42
878.469	48
878.52	40
878.57	40
878.621	42
878.671	42
878.722	30
878.772	34
878.823	52
878.873	50
878.924	50
878.974	48
879.025	40
879.075	44
879.126	30
879.176	42
879.227	44
879.277	48
879.328	44
879.378	46
879.429	46
879.479	42
879.53	44
879.58	32
879.631	48
879.681	46
879.732	38
879.782	32
879.833	50
879.883	46
879.934	40
879.984	38
880.035	48
880.085	40
880.136	36
880.186	48
880.237	38
880.287	46
880.338	38
880.388	42
880.439	44
880.489	48
880.54	48
880.59	38
880.641	46
880.691	48
880.742	46
880.792	40
880.842	34
880.893	46
880.943	42
880.994	34
881.044	44
881.095	44
881.145	36
881.196	40
881.246	42
881.297	42
881.347	46
881.398	38
881.448	40
881.499	46
881.549	50
881.6	40
881.65	38
881.701	42
881.751	42
881.802	40
881.852	42
881.902	46
881.953	46
882.003	36
882.054	36
882.104	48
882.155	44
882.205	38
882.256	40
882.306	50
882.357	40
882.407	44
882.458	40
882.508	38
882.559	36
882.609	38
882.659	46
882.71	48
882.76	42
882.811	44
882.861	34
882.912	44
882.962	42
883.013	38
883.063	36
883.114	48
883.164	46
883.214	42
883.265	38
883.315	44
883.366	38
883.416	36
883.467	44
883.517	42
883.568	34
883.618	38
883.669	36
883.719	42
883.769	42
883.82	48
883.87	36
883.921	52
883.971	48
884.022	42
884.072	42
884.123	40
884.173	40
884.223	40
884.274	32
884.324	36
884.375	46
884.425	40
884.476	32
884.526	44
884.577	40
884.627	44
884.677	38
884.728	42
884.778	42
884.829	44
884.879	36
884.93	42
884.98	46
885.03	38
885.081	32
885.131	40
885.182	48
885.232	38
885.283	34
885.333	40
885.383	44
885.434	46
885.484	36
885.535	34
885.585	42
885.635	44
885.686	38
885.736	36
885.787	42
885.837	38
885.888	32
885.938	36
885.988	44
886.039	38
886.089	44
886.14	40
886.19	48
886.241	40
886.291	32
886.341	40
886.392	44
886.442	42
886.493	38
886.543	36
886.593	44
886.644	40
886.694	38
886.745	34
886.795	40
886.845	40
886.896	34
886.946	36
886.997	40
887.047	40
887.097	36
887.148	36
887.198	36
887.249	40
887.299	30
887.349	36
887.4	40
887.45	36
887.501	54
887.551	32
887.602	46
887.652	44
887.702	40
887.753	34
887.803	40
887.853	44
887.904	40
887.954	36
888.005	44
888.055	44
888.105	40
888.156	34
888.206	40
888.257	38
888.307	44
888.357	44
888.408	42
888.458	38
888.509	38
888.559	36
888.609	38
888.66	44
888.71	34
888.76	36
888.811	28
888.861	38
888.912	36
888.962	34
889.012	40
889.063	42
889.113	44
889.163	32
889.214	36
889.264	44
889.315	40
889.365	30
889.415	34
889.466	34
889.516	40
889.566	38
889.617	44
889.667	38
889.718	36
889.768	32
889.818	32
889.869	40
889.919	32
889.969	34
890.02	34
890.07	46
890.12	36
890.171	36
890.221	38
890.272	36
890.322	44
890.372	34
890.423	30
890.473	42
890.523	38
890.574	34
890.624	36
890.674	40
890.725	34
890.775	30
890.826	36
890.876	30
890.926	42
890.977	30
891.027	30
891.077	46
891.128	42
891.178	30
891.228	36
891.279	40
891.329	48
891.379	46
891.43	38
891.48	38
891.53	48
891.581	38
891.631	34
891.681	38
891.732	34
891.782	40
891.832	34
891.883	42
891.933	38
891.983	34
892.034	34
892.084	36
892.134	38
892.185	42
892.235	42
892.286	40
892.336	38
892.386	36
892.437	32
892.487	36
892.537	40
892.587	40
892.638	40
892.688	40
892.738	32
892.789	40
892.839	34
892.889	38
892.94	38
892.99	38
893.04	24
893.091	28
893.141	44
893.191	36
893.242	32
893.292	34
893.342	34
893.393	30
893.443	38
893.493	40
893.544	38
893.594	36
893.644	28
893.695	34
893.745	38
893.795	32
893.846	22
893.896	32
893.946	40
893.996	42
894.047	30
894.097	38
894.147	38
894.198	38
894.248	28
894.298	32
894.349	40
894.399	46
894.449	36
894.5	32
894.55	42
894.6	38
894.65	32
894.701	34
894.751	34
894.801	40
894.852	38
894.902	34
894.952	38
895.003	42
895.053	36
895.103	34
895.153	38
895.204	38
895.254	38
895.304	28
895.355	42
895.405	38
895.455	30
895.505	36
895.556	32
895.606	38
895.656	38
895.707	28
895.757	30
895.807	34
895.858	32
895.908	28
895.958	36
896.008	38
896.059	32
896.109	34
896.159	40
896.21	34
896.26	38
896.31	38
896.36	40
896.411	32
896.461	40
896.511	34
896.561	34
896.612	38
896.662	38
896.712	28
896.763	38
896.813	38
896.863	32
896.913	34
896.964	36
897.014	38
897.064	40
897.115	34
897.165	24
897.215	40
897.265	40
897.316	32
897.366	32
897.416	34
897.466	36
897.517	34
897.567	38
897.617	36
897.667	28
897.718	34
897.768	40
897.818	42
897.868	34
897.919	30
897.969	30
898.019	36
898.069	34
898.12	30
898.17	28
898.22	32
898.27	36
898.321	26
898.371	34
898.421	34
898.471	38
898.522	32
898.572	36
898.622	42
898.672	36
898.723	32
898.773	24
898.823	38
898.873	32
898.924	28
898.974	26
899.024	36
899.074	40
899.125	38
899.175	34
899.225	40
899.275	30
899.326	22
899.376	30
899.426	36
899.476	32
899.527	34
899.577	36
899.627	26
899.677	40
899.728	36
899.778	36
899.828	34
899.878	40
899.928	32
899.979	22
