#Acq. time (s)=	5
#Accumulations=	2
#Range (nm)=	520...900
#Windows=	8
#Auto scanning=	Off
#Autofocus=	Off
#AutoExposure=	Off
#Spike filter=	Multiple accum.
#Delay time (s)=	0
#Binning=	1
#Readout mode=	Signal
#DeNoise=	Off
#ICS correction=	Off
#Dark correction=	Off
#Inst. Process=	Off
#Detector temperature (°C)=	-59.98
#Instrument=	LabRAM HR Evol
#Detector=	Syncerity OE
#Objective=	x50_VIS
#Grating=	600 (500nm)
#ND Filter=	10%
#Laser=	514nm_Edge
#Hole=	199.981
#Range=	Auto
#StageXY=	Marzhauser
#StageZ=	Marzhauser
#X (µm)=	15300.7
#Y (µm)=	11699
#Z (µm)=	-41
#Full time(mm:ss)=	2:05
#Project=	
#Sample=	
#Site=	
#Title=	MS_091025
#Remark=	
#Date=	13.10.2023 16:42
#Acquired=	13.10.2023 16:42:58
520.044	34
520.097	40
520.149	34
520.201	46
520.254	24
520.306	36
520.359	36
520.411	38
520.464	34
520.516	36
520.569	32
520.621	32
520.674	42
520.726	40
520.778	32
520.831	38
520.883	30
520.936	36
520.988	34
521.041	28
521.093	36
521.146	40
521.198	40
521.25	34
521.303	36
521.355	42
521.408	44
521.46	30
521.513	38
521.565	40
521.617	28
521.67	34
521.722	42
521.775	38
521.827	38
521.88	42
521.932	34
521.984	40
522.037	40
522.089	34
522.142	44
522.194	40
522.247	38
522.299	42
522.352	46
522.404	48
522.456	38
522.509	38
522.561	44
522.614	40
522.666	40
522.719	40
522.771	38
522.823	44
522.876	32
522.928	32
522.981	42
523.033	40
523.086	32
523.138	44
523.19	42
523.243	40
523.295	34
523.348	38
523.4	40
523.453	38
523.505	36
523.557	38
523.61	40
523.662	34
523.715	34
523.767	46
523.82	40
523.872	50
523.924	36
523.977	46
524.029	42
524.082	38
524.134	36
524.186	44
524.239	40
524.291	38
524.344	30
524.396	42
524.449	38
524.501	36
524.553	38
524.606	42
524.658	40
524.711	38
524.763	38
524.815	40
524.868	38
524.92	36
524.973	36
525.025	36
525.078	48
525.13	34
525.182	36
525.235	40
525.287	44
525.34	34
525.392	40
525.444	44
525.497	42
525.549	34
525.602	46
525.654	46
525.706	34
525.759	40
525.811	38
525.864	44
525.916	36
525.969	42
526.021	38
526.073	42
526.126	44
526.178	32
526.231	42
526.283	44
526.335	46
526.388	34
526.44	44
526.493	40
526.545	40
526.597	30
526.65	46
526.702	46
526.755	48
526.807	34
526.859	40
526.912	40
526.964	26
527.017	40
527.069	42
527.121	46
527.174	40
527.226	40
527.279	46
527.331	46
527.383	44
527.436	48
527.488	40
527.54	40
527.593	40
527.645	42
527.698	46
527.75	46
527.802	38
527.855	44
527.907	38
527.96	46
528.012	34
528.064	40
528.117	44
528.169	42
528.222	36
528.274	44
528.326	44
528.379	42
528.431	42
528.484	46
528.536	48
528.588	40
528.641	34
528.693	44
528.745	46
528.798	42
528.85	40
528.903	54
528.955	38
529.007	36
529.06	30
529.112	44
529.164	40
529.217	38
529.269	40
529.322	48
529.374	40
529.426	42
529.479	36
529.531	48
529.584	42
529.636	40
529.688	50
529.741	42
529.793	50
529.845	32
529.898	46
529.95	44
530.003	44
530.055	44
530.107	50
530.16	40
530.212	48
530.264	40
530.317	46
530.369	46
530.422	44
530.474	46
530.526	48
530.579	50
530.631	38
530.683	30
530.736	58
530.788	44
530.841	42
530.893	42
530.945	52
530.998	48
531.05	36
531.102	46
531.155	38
531.207	42
531.259	48
531.312	46
531.364	46
531.417	44
531.469	44
531.521	44
531.574	50
531.626	52
531.678	42
531.731	52
531.783	42
531.835	44
531.888	40
531.94	48
531.992	44
532.045	44
532.097	44
532.15	56
532.202	44
532.254	46
532.307	36
532.359	48
532.411	52
532.464	38
532.516	44
532.568	52
532.621	44
532.673	42
532.726	50
532.778	50
532.83	50
532.883	52
532.935	48
532.987	48
533.04	52
533.092	52
533.144	44
533.197	42
533.249	48
533.301	50
533.354	46
533.406	42
533.458	48
533.511	40
533.563	58
533.615	56
533.668	52
533.72	38
533.773	42
533.825	44
533.877	50
533.93	38
533.982	50
534.034	48
534.087	46
534.139	46
534.191	60
534.244	52
534.296	50
534.348	44
534.401	52
534.453	50
534.505	48
534.558	46
534.61	54
534.662	46
534.715	50
534.767	42
534.819	52
534.872	56
534.924	36
534.976	44
535.029	62
535.081	58
535.133	46
535.186	58
535.238	58
535.29	58
535.343	44
535.395	48
535.447	58
535.5	60
535.552	58
535.604	56
535.657	50
535.709	54
535.761	46
535.814	60
535.866	54
535.918	56
535.971	48
536.023	56
536.075	54
536.128	52
536.18	52
536.232	60
536.285	48
536.337	50
536.389	54
536.442	54
536.494	38
536.546	52
536.599	50
536.651	54
536.703	52
536.755	46
536.808	50
536.86	64
536.912	50
536.965	48
537.017	44
537.069	54
537.122	52
537.174	46
537.226	54
537.279	54
537.331	58
537.383	42
537.436	54
537.488	64
537.54	58
537.593	52
537.645	54
537.697	54
537.75	48
537.802	56
537.854	60
537.906	48
537.959	56
538.011	50
538.063	54
538.116	54
538.168	54
538.22	50
538.273	54
538.325	50
538.377	58
538.43	58
538.482	64
538.534	56
538.586	46
538.639	48
538.691	54
538.743	62
538.796	50
538.848	60
538.9	58
538.953	64
539.005	56
539.057	56
539.109	60
539.162	62
539.214	52
539.266	58
539.319	64
539.371	50
539.423	56
539.476	54
539.528	56
539.58	52
539.633	54
539.685	52
539.737	58
539.789	52
539.842	52
539.894	70
539.946	64
539.999	54
540.051	58
540.103	58
540.155	54
540.208	60
540.26	56
540.312	58
540.365	56
540.417	60
540.469	56
540.521	68
540.574	60
540.626	52
540.678	66
540.731	56
540.783	62
540.835	64
540.888	62
540.94	66
540.992	62
541.044	50
541.097	68
541.149	66
541.201	66
541.254	62
541.306	68
541.358	66
541.41	68
541.463	56
541.515	68
541.567	66
541.62	74
541.672	64
541.724	66
541.776	60
541.829	70
541.881	64
541.933	60
541.985	56
542.038	68
542.09	58
542.142	72
542.195	64
542.247	64
542.299	60
542.351	60
542.404	64
542.456	60
542.508	56
542.56	60
542.613	70
542.665	70
542.717	70
542.77	62
542.822	74
542.874	58
542.926	76
542.979	56
543.031	78
543.083	66
543.135	74
543.188	74
543.24	82
543.292	66
543.344	70
543.397	68
543.449	74
543.501	60
543.554	80
543.606	72
543.658	70
543.71	64
543.763	76
543.815	82
543.867	64
543.919	70
543.972	76
544.024	80
544.076	64
544.128	68
544.181	78
544.233	72
544.285	70
544.337	76
544.39	76
544.442	74
544.494	72
544.547	80
544.599	80
544.651	82
544.703	72
544.755	80
544.808	76
544.86	80
544.912	70
544.965	76
545.017	82
545.069	72
545.121	74
545.174	72
545.226	76
545.278	86
545.33	76
545.383	86
545.435	78
545.487	70
545.539	80
545.591	78
545.644	68
545.696	82
545.748	78
545.8	86
545.853	84
545.905	78
545.957	76
546.009	78
546.062	82
546.114	78
546.166	80
546.218	74
546.271	74
546.323	76
546.375	86
546.427	94
546.48	92
546.532	74
546.584	76
546.636	82
546.689	80
546.741	84
546.793	88
546.845	88
546.898	90
546.95	74
547.002	82
547.054	86
547.106	86
547.159	86
547.211	92
547.263	102
547.315	86
547.368	86
547.42	94
547.472	88
547.524	112
547.577	88
547.629	100
547.681	86
547.733	88
547.785	80
547.838	102
547.89	96
547.942	94
547.994	104
548.047	104
548.099	86
548.151	94
548.203	94
548.255	96
548.308	100
548.36	96
548.412	98
548.464	92
548.517	94
548.569	98
548.621	110
548.673	104
548.725	112
548.778	96
548.83	98
548.882	106
548.934	94
548.987	98
549.039	106
549.091	108
549.143	108
549.195	90
549.248	112
549.3	102
549.352	98
549.404	90
549.456	110
549.509	108
549.561	102
549.613	94
549.665	106
549.718	108
549.77	112
549.822	104
549.874	114
549.926	112
549.979	102
550.031	118
550.083	104
550.135	114
550.187	124
550.24	110
550.292	116
550.344	104
550.396	98
550.448	128
550.501	118
550.553	124
550.605	122
550.657	114
550.709	124
550.762	128
550.814	118
550.866	134
550.918	132
550.97	116
551.023	132
551.075	142
551.127	138
551.179	142
551.231	136
551.284	144
551.336	146
551.388	150
551.44	140
551.492	156
551.545	160
551.597	160
551.649	166
551.701	178
551.753	186
551.806	178
551.858	188
551.91	212
551.962	238
552.014	242
552.067	290
552.119	330
552.171	416
552.223	574
552.275	1088
552.327	2512
552.38	4942
552.432	8572
552.484	13646
552.536	15554
552.588	9558
552.641	4026
552.693	1422
552.745	688
552.797	480
552.849	364
552.901	282
552.954	268
553.006	242
553.058	214
553.11	206
553.162	200
553.215	192
553.267	170
553.319	180
553.371	170
553.423	158
553.475	166
553.528	162
553.58	154
553.632	146
553.684	148
553.736	156
553.788	168
553.841	158
553.893	158
553.945	166
553.997	146
554.049	154
554.102	154
554.154	162
554.206	136
554.258	138
554.31	158
554.362	154
554.414	168
554.467	156
554.519	138
554.571	158
554.623	156
554.675	136
554.727	152
554.78	152
554.832	156
554.884	162
554.936	148
554.988	158
555.04	154
555.093	152
555.145	162
555.197	162
555.249	160
555.301	160
555.353	172
555.406	156
555.458	156
555.51	152
555.562	162
555.614	160
555.666	158
555.719	164
555.771	160
555.823	168
555.875	164
555.927	140
555.979	166
556.031	166
556.084	160
556.136	170
556.188	166
556.24	172
556.292	162
556.344	174
556.396	180
556.449	174
556.501	166
556.553	182
556.605	178
556.657	184
556.709	182
556.762	174
556.814	182
556.866	164
556.918	158
556.97	168
557.022	172
557.074	190
557.127	160
557.179	184
557.231	180
557.283	178
557.335	184
557.387	172
557.439	190
557.492	176
557.544	180
557.596	194
557.648	184
557.7	170
557.752	184
557.804	178
557.856	176
557.909	192
557.961	180
558.013	184
558.065	198
558.117	200
558.169	194
558.221	206
558.273	188
558.326	194
558.378	206
558.43	200
558.482	194
558.534	194
558.586	182
558.638	202
558.691	208
558.743	200
558.795	210
558.847	206
558.899	208
558.951	198
559.003	208
559.055	194
559.108	202
559.16	202
559.212	210
559.264	214
559.316	204
559.368	206
559.42	216
559.472	214
559.525	210
559.577	204
559.629	204
559.681	190
559.733	204
559.785	180
559.837	214
559.889	204
559.941	208
559.994	208
560.046	220
560.098	220
560.15	220
560.202	220
560.254	212
560.306	208
560.358	216
560.41	222
560.463	210
560.515	214
560.567	202
560.619	230
560.671	222
560.723	234
560.775	228
560.827	242
560.879	232
560.932	238
560.984	216
561.036	236
561.088	234
561.14	244
561.192	238
561.244	242
561.296	252
561.348	228
561.4	250
561.453	236
561.505	262
561.557	236
561.609	238
561.661	246
561.713	246
561.765	246
561.817	246
561.869	242
561.921	248
561.974	254
562.026	256
562.078	266
562.13	258
562.182	244
562.234	238
562.286	268
562.338	256
562.39	250
562.442	264
562.494	232
562.547	252
562.599	244
562.651	274
562.703	278
562.755	258
562.807	260
562.859	278
562.911	268
562.963	272
563.015	258
563.067	284
563.12	272
563.172	266
563.224	276
563.276	280
563.328	280
563.38	284
563.432	274
563.484	302
563.536	268
563.588	284
563.64	278
563.692	264
563.744	290
563.797	282
563.849	270
563.901	288
563.953	284
564.005	276
564.057	278
564.109	290
564.161	284
564.213	292
564.265	308
564.317	282
564.369	290
564.421	300
564.474	310
564.526	310
564.578	316
564.63	296
564.682	306
564.734	310
564.786	294
564.838	300
564.89	294
564.942	310
564.994	318
565.046	310
565.098	324
565.15	312
565.202	284
565.255	304
565.307	332
565.359	306
565.411	308
565.463	322
565.515	336
565.567	332
565.619	304
565.671	322
565.723	336
565.775	342
565.827	308
565.879	304
565.931	302
565.983	340
566.035	312
566.087	324
566.139	342
566.192	322
566.244	356
566.296	330
566.348	334
566.4	352
566.452	324
566.504	334
566.556	326
566.608	362
566.66	332
566.712	340
566.764	350
566.816	358
566.868	340
566.92	352
566.972	350
567.024	360
567.076	326
567.128	350
567.18	374
567.232	362
567.285	344
567.337	362
567.389	382
567.441	356
567.493	350
567.545	372
567.597	376
567.649	374
567.701	370
567.753	382
567.805	382
567.857	360
567.909	368
567.961	394
568.013	396
568.065	356
568.117	372.11
568.169	376.238
568.221	390.106
568.273	390.686
568.325	390.879
568.377	389.922
568.429	376.397
568.481	387.927
568.533	378.85
568.585	387.717
568.637	395.58
568.69	397.026
568.742	409.308
568.794	389.523
568.846	401.847
568.898	398.095
568.95	401.028
569.002	403.726
569.054	410.885
569.106	410.298
569.158	426.123
569.21	421.076
569.262	404.648
569.314	416.55
569.366	424.804
569.418	434.521
569.47	430.556
569.522	416.904
569.574	435.648
569.626	422.85
569.678	446.649
569.73	431.661
569.782	431.157
569.834	443.569
569.886	433.858
569.938	439.591
569.99	449.679
570.042	445.328
570.094	454.219
570.146	449.943
570.198	455.279
570.25	467.95
570.302	453.16
570.354	462.711
570.406	455.575
570.458	472.21
570.51	480.901
570.562	482.576
570.614	483.188
570.666	480.704
570.718	490.925
570.77	498.634
570.822	484.578
570.874	507.24
570.926	503.593
570.978	506.542
571.03	498.139
571.082	498.395
571.134	529.245
571.186	531.04
571.238	526.045
571.29	524.783
571.342	529.943
571.394	540.447
571.446	540.65
571.498	539.025
571.55	547.575
571.602	557.944
571.654	564.951
571.706	569.317
571.758	557.926
571.81	563.814
571.862	573.782
571.914	577.74
571.966	591.197
572.018	601.733
572.07	592.363
572.122	613.064
572.174	628.262
572.226	616.865
572.278	642.635
572.33	661.183
572.382	645.268
572.434	649.362
572.486	651.957
572.538	671.811
572.59	659.545
572.642	656.867
572.694	703.732
572.746	700.711
572.798	707.714
572.85	735.117
572.902	728.481
572.954	729.169
573.006	716.074
573.058	721.514
573.11	740.089
573.162	753.135
573.214	770.14
573.266	758.317
573.312	760
573.364	802
573.416	778
573.469	794
573.521	830
573.573	852
573.625	822
573.677	870
573.73	882
573.782	896
573.834	910
573.886	928
573.938	928
573.991	950
574.043	944
574.095	986
574.147	978
574.199	1012
574.252	982
574.304	1036
574.356	1010
574.408	1046
574.46	1092
574.513	1064
574.565	1122
574.617	1142
574.669	1164
574.721	1162
574.774	1178
574.826	1188
574.878	1230
574.93	1288
574.982	1242
575.035	1240
575.087	1262
575.139	1324
575.191	1350
575.243	1324
575.296	1364
575.348	1376
575.4	1410
575.452	1408
575.504	1370
575.556	1388
575.609	1396
575.661	1392
575.713	1430
575.765	1440
575.817	1428
575.87	1420
575.922	1442
575.974	1468
576.026	1422
576.078	1442
576.131	1440
576.183	1386
576.235	1398
576.287	1406
576.339	1424
576.391	1394
576.444	1346
576.496	1312
576.548	1344
576.6	1352
576.652	1352
576.705	1370
576.757	1308
576.809	1318
576.861	1328
576.913	1280
576.965	1244
577.018	1238
577.07	1234
577.122	1240
577.174	1224
577.226	1192
577.279	1178
577.331	1158
577.383	1176
577.435	1196
577.487	1142
577.539	1104
577.592	1114
577.644	1132
577.696	1102
577.748	1074
577.8	1066
577.852	1062
577.905	1014
577.957	1042
578.009	1052
578.061	1000
578.113	1020
578.165	1010
578.218	1006
578.27	988
578.322	970
578.374	998
578.426	982
578.478	948
578.531	958
578.583	930
578.635	996
578.687	980
578.739	980
578.791	976
578.844	952
578.896	916
578.948	910
579	910
579.052	948
579.104	928
579.157	902
579.209	924
579.261	900
579.313	926
579.365	928
579.417	920
579.47	942
579.522	936
579.574	902
579.626	916
579.678	930
579.73	894
579.782	906
579.835	910
579.887	914
579.939	888
579.991	898
580.043	928
580.095	892
580.148	922
580.2	884
580.252	936
580.304	900
580.356	922
580.408	940
580.46	904
580.513	942
580.565	912
580.617	890
580.669	906
580.721	936
580.773	912
580.826	932
580.878	934
580.93	932
580.982	908
581.034	878
581.086	938
581.138	940
581.191	930
581.243	938
581.295	960
581.347	960
581.399	968
581.451	938
581.503	978
581.556	938
581.608	966
581.66	970
581.712	932
581.764	942
581.816	984
581.868	960
581.92	952
581.973	954
582.025	978
582.077	978
582.129	972
582.181	992
582.233	948
582.285	982
582.338	960
582.39	972
582.442	988
582.494	976
582.546	992
582.598	982
582.65	1042
582.703	982
582.755	978
582.807	986
582.859	1014
582.911	994
582.963	984
583.015	982
583.067	996
583.12	994
583.172	990
583.224	1004
583.276	1030
583.328	1032
583.38	1006
583.432	1058
583.484	1040
583.537	1028
583.589	1002
583.641	1048
583.693	1028
583.745	1058
583.797	1062
583.849	1048
583.901	1054
583.953	1054
584.006	1054
584.058	1102
584.11	1094
584.162	1052
584.214	1100
584.266	1120
584.318	1078
584.37	1078
584.423	1070
584.475	1070
584.527	1112
584.579	1092
584.631	1086
584.683	1138
584.735	1122
584.787	1104
584.839	1118
584.892	1128
584.944	1144
584.996	1114
585.048	1144
585.1	1146
585.152	1156
585.204	1156
585.256	1148
585.308	1174
585.361	1128
585.413	1154
585.465	1196
585.517	1154
585.569	1160
585.621	1144
585.673	1212
585.725	1186
585.777	1184
585.83	1174
585.882	1174
585.934	1194
585.986	1186
586.038	1164
586.09	1174
586.142	1224
586.194	1230
586.246	1210
586.298	1206
586.351	1234
586.403	1220
586.455	1238
586.507	1224
586.559	1226
586.611	1228
586.663	1250
586.715	1200
586.767	1226
586.819	1242
586.872	1280
586.924	1258
586.976	1202
587.028	1268
587.08	1222
587.132	1268
587.184	1256
587.236	1232
587.288	1270
587.34	1264
587.392	1242
587.445	1206
587.497	1218
587.549	1248
587.601	1262
587.653	1238
587.705	1294
587.757	1280
587.809	1294
587.861	1246
587.913	1290
587.965	1250
588.018	1260
588.07	1280
588.122	1304
588.174	1272
588.226	1280
588.278	1276
588.33	1280
588.382	1272
588.434	1302
588.486	1284
588.538	1298
588.59	1332
588.642	1308
588.695	1280
588.747	1314
588.799	1290
588.851	1280
588.903	1300
588.955	1324
589.007	1284
589.059	1292
589.111	1310
589.163	1332
589.215	1346
589.267	1306
589.319	1356
589.372	1310
589.424	1354
589.476	1322
589.528	1356
589.58	1334
589.632	1300
589.684	1324
589.736	1300
589.788	1328
589.84	1310
589.892	1318
589.944	1304
589.996	1314
590.048	1376
590.101	1322
590.153	1356
590.205	1310
590.257	1350
590.309	1306
590.361	1332
590.413	1366
590.465	1322
590.517	1336
590.569	1372
590.621	1328
590.673	1274
590.725	1348
590.777	1310
590.829	1274
590.881	1328
590.933	1312
590.986	1322
591.038	1294
591.09	1328
591.142	1316
591.194	1304
591.246	1318
591.298	1278
591.35	1282
591.402	1312
591.454	1304
591.506	1284
591.558	1314
591.61	1288
591.662	1304
591.714	1262
591.766	1318
591.818	1274
591.87	1288
591.923	1304
591.975	1320
592.027	1282
592.079	1306
592.131	1318
592.183	1314
592.235	1286
592.287	1316
592.339	1336
592.391	1286
592.443	1274
592.495	1312
592.547	1324
592.599	1268
592.651	1298
592.703	1292
592.755	1290
592.807	1342
592.859	1312
592.911	1266
592.963	1312
593.015	1270
593.068	1286
593.12	1310
593.172	1300
593.224	1310
593.276	1318
593.328	1324
593.38	1298
593.432	1324
593.484	1296
593.536	1290
593.588	1282
593.64	1318
593.692	1302
593.744	1308
593.796	1280
593.848	1300
593.9	1324
593.952	1250
594.004	1300
594.056	1294
594.108	1310
594.16	1300
594.212	1332
594.264	1318
594.316	1316
594.368	1342
594.42	1334
594.472	1340
594.524	1328
594.576	1340
594.628	1306
594.68	1322
594.732	1322
594.784	1376
594.837	1334
594.889	1380
594.941	1328
594.993	1302
595.045	1356
595.097	1384
595.149	1300
595.201	1340
595.253	1332
595.305	1366
595.357	1360
595.409	1354
595.461	1366
595.513	1356
595.565	1358
595.617	1394
595.669	1414
595.721	1378
595.773	1374
595.825	1418
595.877	1396
595.929	1398
595.981	1394
596.033	1378
596.085	1392
596.137	1404
596.189	1414
596.241	1404
596.293	1404
596.345	1440
596.397	1428
596.449	1424
596.501	1420
596.553	1472
596.605	1458
596.657	1416
596.709	1458
596.761	1440
596.813	1442
596.865	1458
596.917	1414
596.969	1430
597.021	1454
597.073	1442
597.125	1442
597.177	1516
597.229	1462
597.281	1478
597.333	1460
597.385	1440
597.437	1462
597.489	1468
597.541	1494
597.593	1480
597.645	1512
597.697	1420
597.749	1472
597.801	1490
597.853	1482
597.905	1498
597.957	1504
598.009	1474
598.061	1484
598.113	1482
598.165	1498
598.217	1532
598.269	1498
598.321	1546
598.373	1470
598.425	1478
598.477	1494
598.529	1488
598.581	1440
598.633	1522
598.685	1500
598.737	1490
598.789	1488
598.841	1542
598.893	1476
598.945	1508
598.997	1482
599.049	1512
599.101	1520
599.153	1490
599.205	1502
599.257	1500
599.309	1506
599.361	1492
599.413	1476
599.465	1520
599.517	1498
599.569	1526
599.62	1474
599.672	1510
599.724	1514
599.776	1540
599.828	1500
599.88	1510
599.932	1498
599.984	1514
600.036	1550
600.088	1522
600.14	1522
600.192	1510
600.244	1502
600.296	1522
600.348	1544
600.4	1508
600.452	1548
600.504	1524
600.556	1528
600.608	1536
600.66	1508
600.712	1496
600.764	1524
600.816	1494
600.868	1504
600.92	1560
600.972	1502
601.024	1534
601.076	1508
601.128	1516
601.18	1522
601.232	1520
601.284	1518
601.335	1518
601.387	1546
601.439	1562
601.491	1512
601.543	1550
601.595	1524
601.647	1526
601.699	1544
601.751	1554
601.803	1538
601.855	1572
601.907	1598
601.959	1582
602.011	1544
602.063	1536
602.115	1562
602.167	1538
602.219	1540
602.271	1538
602.323	1564
602.375	1534
602.427	1518
602.478	1544
602.53	1536
602.582	1542
602.634	1514
602.686	1552
602.738	1532
602.79	1596
602.842	1552
602.894	1534
602.946	1518
602.998	1512
603.05	1556
603.102	1578
603.154	1554
603.206	1572
603.258	1574
603.31	1578
603.362	1564
603.413	1564
603.465	1560
603.517	1554
603.569	1562
603.621	1590
603.673	1574
603.725	1608
603.777	1542
603.829	1592
603.881	1540
603.933	1560
603.985	1574
604.037	1578
604.089	1568
604.141	1566
604.193	1582
604.244	1634
604.296	1616
604.348	1604
604.4	1576
604.452	1596
604.504	1628
604.556	1596
604.608	1602
604.66	1564
604.712	1586
604.764	1614
604.816	1638
604.868	1592
604.92	1630
604.971	1598
605.023	1588
605.075	1618
605.127	1620
605.179	1610
605.231	1610
605.283	1636
605.335	1610
605.387	1560
605.439	1580
605.491	1580
605.543	1578
605.594	1598
605.646	1562
605.698	1598
605.75	1606
605.802	1620
605.854	1604
605.906	1592
605.958	1600
606.01	1618
606.062	1640
606.114	1606
606.166	1610
606.217	1638
606.269	1590
606.321	1604
606.373	1604
606.425	1584
606.477	1604
606.529	1606
606.581	1582
606.633	1602
606.685	1602
606.737	1580
606.789	1642
606.84	1606
606.892	1596
606.944	1620
606.996	1604
607.048	1606
607.1	1618
607.152	1608
607.204	1614
607.256	1624
607.308	1646
607.359	1608
607.411	1588
607.463	1636
607.515	1582
607.567	1644
607.619	1616
607.671	1608
607.723	1612
607.775	1612
607.827	1626
607.878	1634
607.93	1604
607.982	1668
608.034	1634
608.086	1626
608.138	1582
608.19	1674
608.242	1636
608.294	1644
608.345	1670
608.397	1650
608.449	1652
608.501	1616
608.553	1642
608.605	1684
608.657	1680
608.709	1666
608.761	1636
608.812	1738
608.864	1674
608.916	1668
608.968	1664
609.02	1676
609.072	1658
609.124	1654
609.176	1656
609.228	1668
609.279	1706
609.331	1718
609.383	1726
609.435	1680
609.487	1732
609.539	1696
609.591	1698
609.643	1696
609.694	1716
609.746	1734
609.798	1672
609.85	1652
609.902	1726
609.954	1684
610.006	1758
610.058	1690
610.109	1736
610.161	1712
610.213	1730
610.265	1732
610.317	1732
610.369	1732
610.421	1660
610.473	1696
610.524	1746
610.576	1772
610.628	1780
610.68	1670
610.732	1748
610.784	1742
610.836	1762
610.887	1790
610.939	1682
610.991	1718
611.043	1744
611.095	1732
611.147	1740
611.199	1762
611.25	1740
611.302	1750
611.354	1726
611.406	1734
611.458	1782
611.51	1764
611.562	1760
611.614	1752
611.665	1752
611.717	1792
611.769	1746
611.821	1768
611.873	1756
611.925	1778
611.977	1782
612.028	1738
612.08	1792
612.132	1790
612.184	1840
612.236	1776
612.288	1796
612.339	1770
612.391	1802
612.443	1792
612.495	1790
612.547	1748
612.599	1812
612.651	1814
612.702	1822
612.754	1790
612.806	1836
612.858	1840
612.91	1834
612.962	1816
613.013	1862
613.065	1842
613.117	1822
613.169	1828
613.221	1842
613.273	1890
613.325	1862
613.376	1842
613.428	1846
613.48	1860
613.532	1848
613.584	1878
613.635	1878
613.687	1852
613.739	1870
613.791	1856
613.843	1894
613.895	1850
613.947	1910
613.998	1870
614.05	1874
614.102	1880
614.154	1892
614.206	1906
614.258	1922
614.309	1898
614.361	1866
614.413	1878
614.465	1946
614.517	1896
614.568	1896
614.62	1918
614.672	1938
614.724	1924
614.776	1940
614.828	1956
614.879	2010
614.931	1996
614.983	1930
615.035	1950
615.087	1954
615.139	1988
615.19	1944
615.242	2024
615.294	1946
615.346	1914
615.398	1946
615.449	1986
615.501	1926
615.553	1970
615.605	1964
615.657	1996
615.709	1986
615.76	1972
615.812	2022
615.864	1952
615.916	1994
615.968	1940
616.019	1985.81
616.071	2048.32
616.123	1964.66
616.175	2017.47
616.227	1991.23
616.278	2010.18
616.33	2012.33
616.382	2015.67
616.434	1998.77
616.486	2071.31
616.537	2047.5
616.589	1971.96
616.641	2031.11
616.693	2013.02
616.745	2007.52
616.797	2025.85
616.848	2052.23
616.9	2067.47
616.952	2042.4
617.004	2046.99
617.056	2051.93
617.107	2057.36
617.159	2039.15
617.211	2065.63
617.263	2053.67
617.315	2056.18
617.366	2080.28
617.418	2062.3
617.47	2097.66
617.522	2075.7
617.573	2079.77
617.625	2063.85
617.677	2081.57
617.729	2076.43
617.781	2104.57
617.832	2075.49
617.884	2095.21
617.936	2084.24
617.988	2106.49
618.04	2091.2
618.091	2112.04
618.143	2109.52
618.195	2088.31
618.247	2131.25
618.299	2134.26
618.35	2121.04
618.402	2107.82
618.454	2109.03
618.506	2144.29
618.557	2114.84
618.609	2134.77
618.661	2114.47
618.713	2134.64
618.765	2127.78
618.816	2135.31
618.868	2153.57
618.92	2175.67
618.972	2155.54
619.023	2127.29
619.075	2132.85
619.127	2178.43
619.179	2166.98
619.231	2137.02
619.282	2151.21
619.334	2174.45
619.386	2185.57
619.438	2155.1
619.49	2150.12
619.541	2143.33
619.593	2180.75
619.645	2172.84
619.697	2168.74
619.748	2164.24
619.8	2161.97
619.852	2182.82
619.904	2191.47
619.955	2164.57
620.007	2181.39
620.059	2187.56
620.111	2211.47
620.162	2219.34
620.214	2215.42
620.266	2211.82
620.318	2204.15
620.37	2201.39
620.421	2192.43
620.473	2208.69
620.525	2221.64
620.577	2208.06
620.628	2220.43
620.68	2226.98
620.732	2209.81
620.784	2177.83
620.835	2167.35
620.887	2225.63
620.939	2223.44
620.991	2223.33
621.042	2240.04
621.094	2234.79
621.146	2190.47
621.198	2165.02
621.249	2228.83
621.269	2268
621.321	2210
621.373	2210
621.425	2234
621.477	2200
621.529	2218
621.581	2274
621.633	2240
621.685	2220
621.737	2204
621.789	2256
621.841	2220
621.893	2228
621.945	2196
621.997	2250
622.049	2246
622.101	2214
622.153	2224
622.205	2254
622.257	2284
622.309	2256
622.361	2232
622.413	2248
622.465	2216
622.517	2230
622.569	2282
622.621	2238
622.673	2204
622.725	2276
622.776	2216
622.828	2278
622.88	2264
622.932	2298
622.984	2278
623.036	2288
623.088	2226
623.14	2292
623.192	2272
623.244	2292
623.296	2300
623.348	2306
623.4	2302
623.452	2280
623.504	2304
623.556	2280
623.608	2272
623.66	2300
623.712	2276
623.764	2300
623.816	2306
623.868	2326
623.92	2352
623.972	2300
624.024	2296
624.076	2302
624.128	2304
624.18	2294
624.232	2248
624.284	2310
624.336	2320
624.388	2310
624.44	2290
624.492	2272
624.544	2328
624.596	2332
624.648	2294
624.699	2398
624.751	2332
624.803	2398
624.855	2322
624.907	2338
624.959	2358
625.011	2302
625.063	2360
625.115	2318
625.167	2338
625.219	2318
625.271	2334
625.323	2340
625.375	2334
625.427	2354
625.479	2372
625.531	2342
625.583	2332
625.635	2324
625.687	2402
625.739	2340
625.791	2376
625.843	2342
625.895	2368
625.946	2394
625.998	2372
626.05	2368
626.102	2378
626.154	2402
626.206	2404
626.258	2402
626.31	2402
626.362	2396
626.414	2414
626.466	2434
626.518	2386
626.57	2386
626.622	2420
626.674	2422
626.726	2414
626.778	2408
626.83	2410
626.882	2422
626.934	2440
626.985	2452
627.037	2406
627.089	2452
627.141	2450
627.193	2436
627.245	2464
627.297	2386
627.349	2434
627.401	2416
627.453	2370
627.505	2498
627.557	2448
627.609	2440
627.661	2480
627.713	2478
627.765	2480
627.817	2502
627.868	2480
627.92	2454
627.972	2494
628.024	2476
628.076	2486
628.128	2514
628.18	2534
628.232	2550
628.284	2458
628.336	2524
628.388	2458
628.44	2472
628.492	2464
628.544	2542
628.596	2506
628.647	2498
628.699	2530
628.751	2486
628.803	2494
628.855	2536
628.907	2512
628.959	2544
629.011	2542
629.063	2544
629.115	2510
629.167	2530
629.219	2568
629.271	2550
629.322	2536
629.374	2538
629.426	2592
629.478	2550
629.53	2480
629.582	2538
629.634	2578
629.686	2574
629.738	2574
629.79	2562
629.842	2502
629.894	2594
629.945	2570
629.997	2616
630.049	2570
630.101	2570
630.153	2608
630.205	2594
630.257	2644
630.309	2604
630.361	2634
630.413	2646
630.465	2584
630.517	2638
630.568	2640
630.62	2662
630.672	2660
630.724	2616
630.776	2670
630.828	2632
630.88	2648
630.932	2612
630.984	2632
631.036	2682
631.088	2642
631.14	2646
631.191	2634
631.243	2660
631.295	2624
631.347	2704
631.399	2714
631.451	2666
631.503	2630
631.555	2690
631.607	2702
631.659	2730
631.71	2692
631.762	2714
631.814	2716
631.866	2798
631.918	2700
631.97	2752
632.022	2708
632.074	2718
632.126	2726
632.178	2764
632.229	2784
632.281	2762
632.333	2788
632.385	2754
632.437	2808
632.489	2784
632.541	2834
632.593	2760
632.645	2818
632.696	2780
632.748	2820
632.8	2772
632.852	2796
632.904	2824
632.956	2808
633.008	2806
633.06	2868
633.112	2804
633.164	2856
633.215	2824
633.267	2814
633.319	2810
633.371	2846
633.423	2898
633.475	2834
633.527	2886
633.579	2914
633.63	2878
633.682	2890
633.734	2898
633.786	2824
633.838	2892
633.89	2856
633.942	2896
633.994	2892
634.046	2940
634.097	2934
634.149	2906
634.201	2950
634.253	2942
634.305	2988
634.357	2958
634.409	2952
634.461	2916
634.512	2956
634.564	2956
634.616	3000
634.668	2994
634.72	3054
634.772	3030
634.824	2992
634.876	3016
634.927	2974
634.979	3040
635.031	3050
635.083	3034
635.135	3022
635.187	3110
635.239	3116
635.291	3086
635.342	3082
635.394	3120
635.446	3124
635.498	3170
635.55	3206
635.602	3130
635.654	3140
635.705	3126
635.757	3174
635.809	3226
635.861	3266
635.913	3220
635.965	3240
636.017	3278
636.068	3272
636.12	3252
636.172	3356
636.224	3218
636.276	3382
636.328	3408
636.38	3426
636.431	3396
636.483	3478
636.535	3444
636.587	3536
636.639	3504
636.691	3522
636.743	3536
636.794	3620
636.846	3624
636.898	3676
636.95	3690
637.002	3716
637.054	3752
637.106	3774
637.157	3824
637.209	3856
637.261	3858
637.313	3962
637.365	4004
637.417	3992
637.469	4050
637.52	4086
637.572	4100
637.624	4124
637.676	4178
637.728	4236
637.78	4264
637.831	4302
637.883	4300
637.935	4386
637.987	4318
638.039	4322
638.091	4404
638.143	4396
638.194	4402
638.246	4442
638.298	4476
638.35	4452
638.402	4470
638.454	4456
638.505	4506
638.557	4408
638.609	4484
638.661	4494
638.713	4442
638.765	4392
638.816	4398
638.868	4396
638.92	4390
638.972	4346
639.024	4294
639.076	4340
639.127	4240
639.179	4266
639.231	4270
639.283	4180
639.335	4164
639.387	4146
639.438	4156
639.49	4102
639.542	4064
639.594	4050
639.646	4056
639.698	4128
639.749	3996
639.801	3918
639.853	3992
639.905	3942
639.957	3996
640.008	3930
640.06	3932
640.112	3904
640.164	3934
640.216	3878
640.268	3894
640.319	3840
640.371	3884
640.423	3854
640.475	3844
640.527	3788
640.578	3760
640.63	3786
640.682	3820
640.734	3792
640.786	3780
640.838	3786
640.889	3782
640.941	3772
640.993	3806
641.045	3718
641.097	3734
641.148	3734
641.2	3660
641.252	3740
641.304	3750
641.356	3754
641.408	3714
641.459	3722
641.511	3732
641.563	3626
641.615	3736
641.667	3708
641.718	3708
641.77	3678
641.822	3746
641.874	3642
641.926	3676
641.977	3704
642.029	3700
642.081	3712
642.133	3730
642.185	3688
642.236	3680
642.288	3614
642.34	3742
642.392	3732
642.444	3678
642.495	3644
642.547	3654
642.599	3644
642.651	3704
642.703	3760
642.754	3670
642.806	3662
642.858	3738
642.91	3666
642.962	3650
643.013	3680
643.065	3698
643.117	3664
643.169	3798
643.221	3700
643.272	3648
643.324	3636
643.376	3680
643.428	3660
643.479	3714
643.531	3736
643.583	3662
643.635	3712
643.687	3702
643.738	3720
643.79	3718
643.842	3744
643.894	3734
643.946	3694
643.997	3762
644.049	3722
644.101	3740
644.153	3796
644.205	3732
644.256	3786
644.308	3738
644.36	3710
644.412	3714
644.463	3776
644.515	3758
644.567	3758
644.619	3808
644.671	3784
644.722	3732
644.774	3818
644.826	3758
644.878	3768
644.929	3764
644.981	3792
645.033	3796
645.085	3850
645.136	3836
645.188	3818
645.24	3794
645.292	3824
645.344	3796
645.395	3804
645.447	3798
645.499	3788
645.551	3840
645.602	3780
645.654	3824
645.706	3892
645.758	3860
645.81	3846
645.861	3774
645.913	3792
645.965	3854
646.017	3850
646.068	3864
646.12	3842
646.172	3808
646.224	3904
646.275	3886
646.327	3810
646.379	3842
646.431	3826
646.482	3828
646.534	3858
646.586	3894
646.638	3842
646.689	3912
646.741	3900
646.793	3894
646.845	3900
646.896	3906
646.948	3924
647	3924
647.052	3866
647.104	3854
647.155	3868
647.207	3892
647.259	3912
647.31	3962
647.362	3902
647.414	3914
647.466	3908
647.518	3886
647.569	3890
647.621	3940
647.673	3964
647.724	3978
647.776	3904
647.828	3928
647.88	3970
647.931	3876
647.983	3998
648.035	3954
648.087	3938
648.138	4008
648.19	4036
648.242	3938
648.294	4004
648.345	4018
648.397	4020
648.449	4014
648.501	4032
648.552	3976
648.604	4002
648.656	3978
648.708	3980
648.759	4056
648.811	4036
648.863	4008
648.915	4050
648.966	4068
649.018	4026
649.07	4054
649.121	4100
649.173	4076
649.225	4008
649.277	4060
649.328	4112
649.38	4084
649.432	4140
649.484	4096
649.535	4078
649.587	4054
649.639	4182
649.69	4140
649.742	4056
649.794	4172
649.846	4132
649.897	4160
649.949	4196
650.001	4166
650.053	4188
650.104	4194
650.156	4248
650.208	4164
650.259	4170
650.311	4202
650.363	4206
650.415	4120
650.466	4174
650.518	4230
650.57	4192
650.621	4220
650.673	4222
650.725	4288
650.777	4218
650.828	4234
650.88	4230
650.932	4298
650.984	4320
651.035	4210
651.087	4354
651.139	4238
651.19	4292
651.242	4220
651.294	4328
651.345	4226
651.397	4308
651.449	4304
651.501	4354
651.552	4286
651.604	4350
651.656	4314
651.707	4304
651.759	4310
651.811	4348
651.863	4260
651.914	4338
651.966	4336
652.018	4348
652.069	4340
652.121	4374
652.173	4368
652.224	4414
652.276	4400
652.328	4380
652.38	4412
652.431	4432
652.483	4424
652.535	4436
652.586	4424
652.638	4444
652.69	4410
652.741	4486
652.793	4402
652.845	4422
652.897	4508
652.948	4500
653	4494
653.052	4384
653.103	4422
653.155	4516
653.207	4484
653.258	4542
653.31	4470
653.362	4582
653.413	4490
653.465	4560
653.517	4528
653.568	4532
653.62	4592
653.672	4604
653.724	4642
653.775	4540
653.827	4644
653.879	4578
653.93	4630
653.982	4590
654.034	4594
654.085	4616
654.137	4652
654.189	4636
654.24	4686
654.292	4688
654.344	4672
654.395	4656
654.447	4586
654.499	4694
654.55	4634
654.602	4732
654.654	4772
654.705	4780
654.757	4726
654.809	4716
654.86	4772
654.912	4776
654.964	4754
655.016	4778
655.067	4782
655.119	4752
655.17	4806
655.222	4772
655.274	4856
655.326	4836
655.377	4848
655.429	4894
655.481	4820
655.532	4860
655.584	4922
655.635	4930
655.687	4874
655.739	4934
655.79	4908
655.842	4978
655.894	4968
655.945	4954
655.997	4914
656.049	4988
656.1	4968
656.152	5046
656.204	4968
656.255	5052
656.307	5088
656.359	5064
656.41	5074
656.462	5038
656.514	5058
656.565	5012
656.617	5070
656.669	5088
656.72	5146
656.772	5110
656.824	5182
656.875	5132
656.927	5120
656.979	5104
657.03	5134
657.082	5104
657.134	5190
657.185	5116
657.237	5188
657.288	5216
657.34	5202
657.392	5202
657.443	5334
657.495	5260
657.547	5236
657.598	5320
657.65	5266
657.702	5278
657.753	5288
657.805	5288
657.857	5220
657.908	5278
657.96	5346
658.011	5282
658.063	5308
658.115	5362
658.166	5288
658.218	5318
658.27	5324
658.321	5382
658.373	5366
658.425	5412
658.476	5342
658.528	5408
658.579	5408
658.631	5374
658.683	5406
658.734	5340
658.786	5378
658.838	5476
658.889	5404
658.941	5394
658.992	5454
659.044	5478
659.096	5408
659.147	5420
659.199	5362
659.251	5424
659.302	5452
659.354	5452
659.406	5490
659.457	5462
659.509	5326
659.56	5440
659.612	5488
659.664	5440
659.715	5514
659.767	5482
659.818	5448
659.87	5544
659.922	5530
659.973	5438
660.025	5472
660.077	5484
660.128	5502
660.18	5518
660.231	5460
660.283	5492
660.335	5578
660.386	5444
660.438	5478
660.49	5428
660.541	5550
660.593	5464
660.644	5480
660.696	5448
660.748	5558
660.799	5550
660.851	5512
660.902	5598
660.954	5492
661.006	5532
661.057	5464
661.109	5498
661.16	5502
661.212	5522
661.264	5532
661.315	5462
661.367	5472
661.418	5510
661.47	5460
661.522	5548
661.573	5506
661.625	5574
661.676	5478
661.728	5582
661.78	5476
661.831	5576
661.883	5564
661.934	5502
661.986	5536
662.038	5504
662.089	5530
662.141	5534
662.192	5550
662.244	5560
662.296	5508
662.347	5516
662.399	5484
662.45	5520
662.502	5540
662.554	5590
662.605	5582
662.657	5526
662.708	5488
662.76	5544
662.811	5542
662.863	5480
662.915	5484
662.966	5558
663.018	5534
663.069	5568
663.121	5478
663.173	5564
663.224	5562
663.276	5542
663.327	5472
663.379	5528
663.43	5450
663.482	5570
663.534	5498
663.585	5538
663.637	5494
663.688	5524
663.74	5649.96
663.792	5588.27
663.843	5576.01
663.895	5573.39
663.946	5515.48
663.998	5545.87
664.049	5521.64
664.101	5518.34
664.153	5545.44
664.204	5532.88
664.256	5587.77
664.307	5474.25
664.359	5526.15
664.41	5608.26
664.462	5552.94
664.513	5542.17
664.565	5576.15
664.617	5494.1
664.668	5546.98
664.72	5578.33
664.771	5549.43
664.823	5564.41
664.874	5555.21
664.926	5527.25
664.978	5551.3
665.029	5557
665.081	5540.81
665.132	5534.41
665.184	5546.6
665.235	5565.53
665.287	5575.55
665.339	5504.92
665.39	5522.75
665.442	5530.02
665.493	5523.1
665.545	5555.63
665.596	5596.51
665.648	5514.39
665.699	5529.29
665.751	5509.03
665.802	5587.88
665.854	5563.52
665.906	5527.54
665.957	5544.23
666.009	5516.49
666.06	5515.04
666.112	5558.95
666.163	5570.98
666.215	5569.52
666.266	5541.53
666.318	5510.23
666.37	5561.97
666.421	5581.66
666.473	5583.1
666.524	5576.05
666.576	5542.55
666.627	5532.86
666.679	5546.64
666.73	5572.89
666.782	5531.86
666.833	5558.26
666.885	5529.1
666.937	5527.49
666.988	5522.59
667.04	5542.44
667.091	5500.49
667.143	5513.32
667.194	5543.47
667.246	5566.38
667.297	5516.98
667.349	5517
667.4	5537.46
667.452	5511.23
667.503	5542.57
667.555	5507.39
667.607	5542.15
667.658	5541.57
667.71	5561.31
667.761	5550.59
667.813	5525.85
667.864	5496.16
667.916	5511.58
667.967	5555.08
668.019	5532.41
668.07	5506.77
668.122	5540.17
668.173	5536.82
668.225	5571.53
668.276	5638.68
668.328	5549.77
668.379	5538.72
668.431	5542.38
668.482	5553.42
668.534	5551.85
668.586	5537.4
668.637	5521.67
668.689	5522.62
668.74	5503.58
668.792	5535.39
668.843	5508.4
668.895	5560.97
668.935	5606
668.987	5530
669.038	5560
669.09	5530
669.142	5480
669.194	5556
669.245	5542
669.297	5458
669.349	5442
669.401	5588
669.453	5482
669.504	5520
669.556	5536
669.608	5512
669.66	5508
669.711	5498
669.763	5564
669.815	5458
669.867	5510
669.918	5534
669.97	5610
670.022	5606
670.074	5584
670.125	5546
670.177	5618
670.229	5526
670.281	5538
670.332	5492
670.384	5496
670.436	5496
670.488	5478
670.539	5484
670.591	5482
670.643	5520
670.695	5582
670.747	5484
670.798	5594
670.85	5524
670.902	5534
670.953	5508
671.005	5560
671.057	5532
671.109	5552
671.161	5552
671.212	5512
671.264	5544
671.316	5566
671.367	5530
671.419	5532
671.471	5570
671.523	5590
671.575	5534
671.626	5500
671.678	5590
671.73	5538
671.781	5584
671.833	5574
671.885	5592
671.937	5574
671.988	5550
672.04	5600
672.092	5600
672.144	5576
672.195	5608
672.247	5542
672.299	5564
672.351	5622
672.402	5518
672.454	5538
672.506	5634
672.558	5532
672.609	5476
672.661	5596
672.713	5650
672.765	5626
672.816	5676
672.868	5680
672.92	5614
672.971	5590
673.023	5644
673.075	5572
673.127	5618
673.178	5682
673.23	5616
673.282	5604
673.334	5602
673.385	5636
673.437	5662
673.489	5706
673.54	5684
673.592	5706
673.644	5700
673.696	5732
673.747	5628
673.799	5644
673.851	5660
673.903	5696
673.954	5684
674.006	5666
674.058	5700
674.109	5688
674.161	5722
674.213	5698
674.265	5732
674.316	5648
674.368	5738
674.42	5802
674.471	5794
674.523	5780
674.575	5778
674.627	5730
674.678	5782
674.73	5716
674.782	5732
674.833	5848
674.885	5732
674.937	5806
674.989	5812
675.04	5730
675.092	5792
675.144	5828
675.195	5760
675.247	5826
675.299	5852
675.351	5778
675.402	5844
675.454	5748
675.506	5858
675.557	5774
675.609	5808
675.661	5856
675.713	5836
675.764	5808
675.816	5848
675.868	5878
675.919	5886
675.971	5840
676.023	5842
676.074	5882
676.126	5876
676.178	5842
676.23	5864
676.281	5902
676.333	5828
676.385	5848
676.436	5884
676.488	5950
676.54	5946
676.591	5848
676.643	5882
676.695	5824
676.747	5870
676.798	5858
676.85	5906
676.902	5848
676.953	5942
677.005	5936
677.057	5904
677.108	5844
677.16	5830
677.212	5792
677.263	5906
677.315	5828
677.367	5918
677.419	5916
677.47	5860
677.522	5834
677.574	5884
677.625	5918
677.677	5968
677.729	5944
677.78	5898
677.832	5886
677.884	5894
677.935	5908
677.987	5820
678.039	5950
678.091	5876
678.142	5894
678.194	5918
678.246	5818
678.297	5870
678.349	5922
678.401	5982
678.452	5926
678.504	5846
678.556	5954
678.607	5894
678.659	5926
678.711	5832
678.762	5892
678.814	5908
678.866	5938
678.917	5808
678.969	5852
679.021	5974
679.072	5888
679.124	5920
679.176	5906
679.227	5930
679.279	5908
679.331	5902
679.382	5954
679.434	5944
679.486	5892
679.537	5976
679.589	6008
679.641	5964
679.692	5914
679.744	5904
679.796	5860
679.847	5898
679.899	5906
679.951	5912
680.003	5828
680.054	5940
680.106	5956
680.157	5976
680.209	6030
680.261	5902
680.312	5980
680.364	5954
680.416	5970
680.467	6004
680.519	6078
680.571	5956
680.622	5994
680.674	5922
680.726	6044
680.777	6066
680.829	6012
680.881	6066
680.932	5994
680.984	6012
681.036	6006
681.087	6056
681.139	6028
681.191	6050
681.242	5926
681.294	5912
681.346	6020
681.397	6060
681.449	6022
681.501	6026
681.552	6062
681.604	5898
681.656	6094
681.707	6030
681.759	6024
681.81	6078
681.862	6026
681.914	6102
681.965	6014
682.017	6048
682.069	6124
682.12	6064
682.172	6080
682.224	6034
682.275	6066
682.327	6062
682.379	6082
682.43	6122
682.482	6136
682.533	6124
682.585	6074
682.637	5950
682.688	6140
682.74	6030
682.792	6100
682.843	6126
682.895	6122
682.947	6074
682.998	6060
683.05	6128
683.102	6106
683.153	6098
683.205	6120
683.256	6084
683.308	6142
683.36	6172
683.411	6144
683.463	6088
683.515	6068
683.566	6086
683.618	6014
683.669	6114
683.721	6036
683.773	6088
683.824	6052
683.876	6124
683.928	6020
683.979	6000
684.031	6042
684.082	6058
684.134	6022
684.186	6126
684.237	6034
684.289	6014
684.341	5968
684.392	6088
684.444	6086
684.495	6070
684.547	6088
684.599	6026
684.65	6010
684.702	6076
684.754	6070
684.805	6070
684.857	6066
684.908	6094
684.96	6084
685.012	6064
685.063	5982
685.115	5976
685.166	6014
685.218	5998
685.27	5940
685.321	6038
685.373	5986
685.424	5948
685.476	5986
685.528	6014
685.579	6052
685.631	5964
685.683	6006
685.734	5936
685.786	5924
685.837	5980
685.889	6028
685.941	6010
685.992	5962
686.044	6004
686.095	5976
686.147	5982
686.199	6004
686.25	5946
686.302	5966
686.353	5922
686.405	5962
686.457	6040
686.508	5944
686.56	5926
686.611	6018
686.663	5910
686.715	5956
686.766	5964
686.818	5916
686.869	5902
686.921	5974
686.973	5878
687.024	5868
687.076	6024
687.127	5942
687.179	5912
687.231	5930
687.282	5922
687.334	5914
687.385	5902
687.437	5926
687.489	5914
687.54	5884
687.592	5972
687.643	6002
687.695	5970
687.747	5926
687.798	5920
687.85	5956
687.901	5926
687.953	5918
688.004	5834
688.056	5950
688.108	5936
688.159	5920
688.211	5874
688.262	5930
688.314	5928
688.366	5952
688.417	5938
688.469	5980
688.52	5924
688.572	5918
688.623	5928
688.675	5918
688.727	5948
688.778	5974
688.83	5886
688.881	5974
688.933	5964
688.984	6020
689.036	5962
689.088	5882
689.139	5912
689.191	5904
689.242	5806
689.294	5892
689.346	5942
689.397	5830
689.449	5906
689.5	5954
689.552	5900
689.603	5908
689.655	5886
689.706	5908
689.758	5832
689.81	5912
689.861	5838
689.913	5884
689.964	5890
690.016	5874
690.067	5926
690.119	5848
690.171	5894
690.222	5858
690.274	5880
690.325	5896
690.377	5764
690.428	5820
690.48	5848
690.531	5834
690.583	5860
690.635	5804
690.686	5918
690.738	5828
690.789	5846
690.841	5872
690.892	5800
690.944	5794
690.996	5804
691.047	5864
691.099	5784
691.15	5784
691.202	5762
691.253	5760
691.305	5838
691.356	5838
691.408	5742
691.459	5778
691.511	5852
691.563	5738
691.614	5702
691.666	5716
691.717	5834
691.769	5796
691.82	5754
691.872	5760
691.923	5742
691.975	5784
692.026	5798
692.078	5726
692.13	5806
692.181	5752
692.233	5758
692.284	5722
692.336	5726
692.387	5710
692.439	5692
692.49	5722
692.542	5720
692.593	5674
692.645	5798
692.697	5648
692.748	5710
692.8	5720
692.851	5690
692.903	5692
692.954	5628
693.006	5672
693.057	5656
693.109	5708
693.16	5696
693.212	5674
693.263	5634
693.315	5704
693.366	5634
693.418	5686
693.47	5672
693.521	5690
693.573	5692
693.624	5660
693.676	5628
693.727	5658
693.779	5630
693.83	5724
693.882	5644
693.933	5640
693.985	5658
694.036	5546
694.088	5652
694.139	5656
694.191	5610
694.242	5662
694.294	5588
694.345	5642
694.397	5698
694.448	5594
694.5	5622
694.552	5630
694.603	5662
694.655	5592
694.706	5636
694.758	5632
694.809	5620
694.861	5616
694.912	5626
694.964	5624
695.015	5624
695.067	5546
695.118	5586
695.17	5586
695.221	5514
695.273	5574
695.324	5566
695.376	5514
695.427	5534
695.479	5566
695.53	5610
695.582	5562
695.633	5626
695.685	5622
695.736	5562
695.788	5606
695.839	5534
695.891	5592
695.942	5550
695.994	5532
696.045	5560
696.097	5550
696.148	5538
696.2	5568
696.251	5528
696.303	5550
696.354	5552
696.406	5598
696.457	5536
696.509	5528
696.56	5556
696.612	5482
696.663	5464
696.715	5572
696.766	5510
696.818	5450
696.869	5504
696.921	5462
696.972	5502
697.024	5494
697.075	5456
697.127	5484
697.178	5490
697.23	5420
697.281	5502
697.333	5448
697.384	5484
697.436	5380
697.487	5526
697.539	5508
697.59	5442
697.642	5400
697.693	5380
697.745	5406
697.796	5406
697.847	5410
697.899	5434
697.95	5440
698.002	5352
698.053	5334
698.105	5404
698.156	5374
698.208	5372
698.259	5408
698.311	5300
698.362	5296
698.414	5378
698.465	5310
698.517	5360
698.568	5438
698.62	5386
698.671	5356
698.723	5302
698.774	5392
698.826	5352
698.877	5310
698.928	5318
698.98	5356
699.031	5290
699.083	5322
699.134	5318
699.186	5274
699.237	5352
699.289	5262
699.34	5240
699.392	5344
699.443	5266
699.495	5286
699.546	5238
699.598	5254
699.649	5370
699.7	5242
699.752	5248
699.803	5290
699.855	5278
699.906	5274
699.958	5220
700.009	5288
700.061	5212
700.112	5286
700.164	5186
700.215	5266
700.266	5236
700.318	5170
700.369	5310
700.421	5232
700.472	5236
700.524	5258
700.575	5260
700.627	5202
700.678	5198
700.73	5230
700.781	5272
700.832	5246
700.884	5228
700.935	5242
700.987	5264
701.038	5242
701.09	5254
701.141	5196
701.193	5148
701.244	5250
701.295	5266
701.347	5252
701.398	5260
701.45	5186
701.501	5280
701.553	5240
701.604	5196
701.656	5302
701.707	5244
701.758	5182
701.81	5270
701.861	5298
701.913	5264
701.964	5248
702.016	5238
702.067	5236
702.119	5222
702.17	5224
702.221	5170
702.273	5256
702.324	5294
702.376	5246
702.427	5172
702.479	5220
702.53	5248
702.581	5216
702.633	5256
702.684	5258
702.736	5286
702.787	5240
702.839	5206
702.89	5244
702.941	5282
702.993	5240
703.044	5236
703.096	5172
703.147	5232
703.199	5220
703.25	5246
703.301	5162
703.353	5224
703.404	5226
703.456	5202
703.507	5200
703.558	5266
703.61	5166
703.661	5144
703.713	5176
703.764	5190
703.816	5190
703.867	5108
703.918	5222
703.97	5262
704.021	5206
704.073	5158
704.124	5232
704.175	5170
704.227	5154
704.278	5208
704.33	5192
704.381	5186
704.432	5140
704.484	5132
704.535	5130
704.587	5118
704.638	5174
704.69	5124
704.741	5194
704.792	5126
704.844	5168
704.895	5132
704.947	5050
704.998	5070
705.049	5200
705.101	5114
705.152	5136
705.204	5020
705.255	5004
705.306	5004
705.358	5118
705.409	5084
705.461	5058
705.512	5054
705.563	5070
705.615	5070
705.666	5068
705.718	5026
705.769	5018
705.82	5068
705.872	5016
705.923	5062
705.974	5062
706.026	5042
706.077	5044
706.129	5014
706.18	5002
706.231	4962
706.283	5078
706.334	4996
706.386	5064
706.437	4946
706.488	4984
706.54	4964
706.591	4968
706.643	4936
706.694	5024
706.745	5020
706.797	4914
706.848	4936
706.899	4930
706.951	4972
707.002	4924
707.054	4872
707.105	4934
707.156	4906
707.208	4926
707.259	4878
707.31	4866
707.362	4910
707.413	4902
707.465	4868
707.516	4902
707.567	4950
707.619	4870
707.67	4868
707.721	4824
707.773	4822
707.824	4930
707.876	4802
707.927	4826
707.978	4910
708.03	4894
708.081	4846
708.132	4898
708.184	4812
708.235	4934
708.287	4852
708.338	4866
708.389	4864
708.441	4816
708.492	4768
708.543	4806
708.595	4870
708.646	4766
708.697	4824
708.749	4816
708.8	4822
708.852	4848
708.903	4860
708.954	4806
709.006	4790
709.057	4852
709.108	4826
709.16	4802
709.211	4810
709.262	4822
709.314	4800
709.365	4804
709.416	4776
709.468	4756
709.519	4702
709.57	4806
709.622	4816
709.673	4808
709.725	4736
709.776	4770
709.827	4684
709.879	4788
709.93	4840
709.981	4784
710.033	4774
710.084	4792
710.135	4812
710.187	4752
710.238	4766
710.289	4744
710.341	4744
710.392	4696
710.443	4720
710.495	4754
710.546	4854
710.597	4818
710.649	4796
710.7	4706
710.751	4756
710.803	4722
710.854	4740
710.905	4704
710.957	4682
711.008	4708
711.059	4698
711.111	4776
711.162	4684
711.213	4684
711.265	4676.39
711.316	4673.37
711.367	4681.44
711.419	4755.49
711.47	4679.16
711.521	4688.06
711.573	4663.82
711.624	4687
711.675	4640.2
711.727	4684.25
711.778	4663.49
711.829	4693.72
711.881	4689.36
711.932	4628.09
711.983	4647.71
712.035	4700.11
712.086	4667.11
712.137	4657.79
712.189	4651.87
712.24	4651.13
712.291	4654.75
712.343	4606.75
712.394	4621.55
712.445	4588.69
712.496	4584.04
712.548	4600.51
712.599	4526.11
712.65	4642.91
712.702	4643.59
712.753	4561.2
712.804	4553.67
712.856	4526.21
712.907	4597.12
712.958	4604.3
713.01	4539.67
713.061	4516.82
713.112	4557.87
713.164	4565.62
713.215	4561.31
713.266	4563.36
713.317	4545.58
713.369	4543.41
713.42	4502.7
713.471	4544.39
713.523	4553.56
713.574	4490.34
713.625	4476.06
713.677	4483.97
713.728	4483.58
713.779	4487.63
713.831	4483.06
713.882	4472.77
713.933	4467.91
713.984	4460.37
714.036	4464.64
714.087	4462.9
714.138	4455.14
714.19	4451.04
714.241	4447.25
714.292	4452.02
714.343	4453.04
714.395	4421.83
714.446	4428.38
714.497	4427.35
714.549	4422.46
714.6	4388.99
714.651	4411.84
714.703	4423.82
714.754	4424.72
714.805	4460.16
714.856	4449.74
714.908	4406.26
714.959	4374.95
715.01	4380.85
715.062	4385.68
715.113	4367.18
715.164	4364.92
715.215	4399.09
715.267	4413.79
715.318	4360.83
715.369	4369.41
715.421	4350.36
715.472	4352.9
715.523	4346.79
715.574	4331.7
715.626	4347.78
715.677	4376.48
715.728	4373.19
715.779	4347.54
715.831	4362.21
715.882	4338.16
715.933	4271.96
715.985	4298.76
716.036	4343.49
716.087	4331.05
716.138	4313.38
716.19	4295.25
716.241	4254.66
716.292	4274.9
716.343	4272.99
716.395	4335.77
716.433	4306
716.485	4330
716.536	4276
716.588	4300
716.639	4312
716.691	4314
716.742	4234
716.794	4286
716.845	4290
716.897	4206
716.948	4242
717	4218
717.052	4256
717.103	4196
717.155	4224
717.206	4244
717.258	4240
717.309	4200
717.361	4228
717.412	4262
717.464	4190
717.515	4156
717.567	4288
717.618	4224
717.67	4222
717.721	4174
717.773	4136
717.824	4186
717.876	4196
717.927	4178
717.979	4168
718.03	4170
718.082	4144
718.133	4228
718.185	4132
718.237	4160
718.288	4218
718.34	4164
718.391	4194
718.443	4172
718.494	4128
718.546	4096
718.597	4098
718.649	4080
718.7	4142
718.752	4182
718.803	4086
718.855	4082
718.906	4212
718.958	4090
719.009	4100
719.061	4118
719.112	4154
719.164	4108
719.215	4106
719.267	4126
719.318	4126
719.37	3932
719.421	4086
719.473	4100
719.524	4102
719.576	4094
719.627	4060
719.679	4102
719.73	4070
719.782	4018
719.833	4054
719.885	4012
719.936	3974
719.988	4026
720.039	4046
720.091	3988
720.142	4032
720.194	4050
720.245	4036
720.297	4032
720.348	4074
720.4	4016
720.451	3956
720.503	4008
720.554	3914
720.606	3986
720.657	3978
720.709	3960
720.76	4022
720.812	3984
720.863	3972
720.915	3930
720.966	4004
721.018	3976
721.069	4004
721.121	3898
721.172	3958
721.224	3930
721.275	3872
721.327	3946
721.378	3968
721.43	3842
721.481	3906
721.532	3852
721.584	3912
721.635	3848
721.687	3874
721.738	3946
721.79	3926
721.841	3898
721.893	3768
721.944	3860
721.996	3864
722.047	3890
722.099	3832
722.15	3884
722.202	3866
722.253	3882
722.305	3856
722.356	3810
722.408	3800
722.459	3856
722.511	3774
722.562	3818
722.614	3816
722.665	3854
722.716	3796
722.768	3788
722.819	3726
722.871	3776
722.922	3750
722.974	3794
723.025	3820
723.077	3802
723.128	3762
723.18	3784
723.231	3770
723.283	3808
723.334	3774
723.386	3690
723.437	3738
723.488	3732
723.54	3718
723.591	3670
723.643	3774
723.694	3664
723.746	3728
723.797	3752
723.849	3692
723.9	3734
723.952	3732
724.003	3736
724.055	3716
724.106	3678
724.157	3624
724.209	3676
724.26	3706
724.312	3694
724.363	3710
724.415	3674
724.466	3670
724.518	3656
724.569	3700
724.621	3634
724.672	3620
724.723	3608
724.775	3684
724.826	3658
724.878	3662
724.929	3662
724.981	3620
725.032	3628
725.084	3614
725.135	3634
725.187	3560
725.238	3558
725.289	3586
725.341	3678
725.392	3606
725.444	3642
725.495	3590
725.547	3564
725.598	3662
725.65	3618
725.701	3524
725.752	3570
725.804	3578
725.855	3520
725.907	3604
725.958	3594
726.01	3574
726.061	3570
726.112	3586
726.164	3552
726.215	3600
726.267	3546
726.318	3522
726.37	3526
726.421	3532
726.473	3556
726.524	3580
726.575	3482
726.627	3488
726.678	3564
726.73	3532
726.781	3474
726.833	3484
726.884	3526
726.935	3458
726.987	3518
727.038	3466
727.09	3498
727.141	3478
727.193	3464
727.244	3508
727.295	3474
727.347	3468
727.398	3502
727.45	3516
727.501	3414
727.552	3410
727.604	3454
727.655	3390
727.707	3420
727.758	3436
727.81	3448
727.861	3476
727.912	3376
727.964	3404
728.015	3384
728.067	3428
728.118	3410
728.17	3414
728.221	3430
728.272	3374
728.324	3398
728.375	3364
728.427	3332
728.478	3340
728.529	3380
728.581	3390
728.632	3400
728.684	3346
728.735	3302
728.786	3362
728.838	3312
728.889	3298
728.941	3322
728.992	3286
729.044	3322
729.095	3286
729.146	3314
729.198	3218
729.249	3270
729.301	3280
729.352	3248
729.403	3232
729.455	3314
729.506	3216
729.558	3150
729.609	3246
729.66	3218
729.712	3210
729.763	3230
729.815	3210
729.866	3182
729.917	3274
729.969	3190
730.02	3188
730.072	3220
730.123	3238
730.174	3190
730.226	3218
730.277	3182
730.329	3208
730.38	3204
730.431	3106
730.483	3180
730.534	3188
730.586	3172
730.637	3146
730.688	3120
730.74	3186
730.791	3162
730.842	3120
730.894	3122
730.945	3156
730.997	3176
731.048	3142
731.099	3122
731.151	3130
731.202	3106
731.254	3134
731.305	3128
731.356	3078
731.408	3112
731.459	3136
731.51	3082
731.562	3100
731.613	3056
731.665	3100
731.716	3120
731.767	3118
731.819	3112
731.87	3060
731.922	3104
731.973	3100
732.024	3104
732.076	3038
732.127	3078
732.178	3050
732.23	3098
732.281	3106
732.333	3086
732.384	3094
732.435	3060
732.487	3052
732.538	3056
732.589	3030
732.641	3030
732.692	3072
732.744	3028
732.795	3066
732.846	2988
732.898	3050
732.949	3054
733	3042
733.052	2988
733.103	3014
733.154	3052
733.206	3016
733.257	3028
733.309	3100
733.36	3042
733.411	3016
733.463	3070
733.514	3014
733.565	2992
733.617	3064
733.668	2990
733.719	3014
733.771	3012
733.822	3028
733.873	2968
733.925	2996
733.976	2962
734.028	2936
734.079	3018
734.13	2950
734.182	3012
734.233	3000
734.284	2984
734.336	3004
734.387	2950
734.438	2988
734.49	3006
734.541	2984
734.592	2928
734.644	2936
734.695	2928
734.747	3010
734.798	2984
734.849	2994
734.901	2958
734.952	2990
735.003	2950
735.055	2948
735.106	2978
735.157	2946
735.209	2966
735.26	2932
735.311	2910
735.363	2922
735.414	2954
735.465	2966
735.517	2958
735.568	2964
735.619	2922
735.671	2894
735.722	2972
735.773	2918
735.825	2886
735.876	2936
735.927	2950
735.979	2920
736.03	2914
736.081	2926
736.133	2908
736.184	2896
736.235	2900
736.287	2980
736.338	2922
736.389	2922
736.441	2930
736.492	2948
736.543	2950
736.595	2892
736.646	2962
736.697	2924
736.749	2896
736.8	2932
736.851	2994
736.903	2928
736.954	2886
737.005	2952
737.057	2906
737.108	2906
737.159	2908
737.211	2880
737.262	2916
737.313	2942
737.365	2940
737.416	2874
737.467	2936
737.518	2834
737.57	2892
737.621	2932
737.672	2912
737.724	2900
737.775	2906
737.826	2872
737.878	2850
737.929	2944
737.98	2896
738.032	2938
738.083	2910
738.134	2894
738.186	2902
738.237	2876
738.288	2862
738.339	2938
738.391	2860
738.442	2898
738.493	2934
738.545	2898
738.596	2880
738.647	2824
738.699	2844
738.75	2874
738.801	2836
738.853	2864
738.904	2932
738.955	2866
739.006	2850
739.058	2804
739.109	2868
739.16	2894
739.212	2748
739.263	2836
739.314	2846
739.366	2854
739.417	2814
739.468	2854
739.519	2802
739.571	2828
739.622	2810
739.673	2856
739.725	2808
739.776	2840
739.827	2814
739.878	2740
739.93	2830
739.981	2808
740.032	2884
740.084	2778
740.135	2776
740.186	2742
740.237	2808
740.289	2780
740.34	2740
740.391	2770
740.443	2784
740.494	2806
740.545	2798
740.596	2768
740.648	2766
740.699	2772
740.75	2748
740.802	2794
740.853	2742
740.904	2714
740.956	2712
741.007	2704
741.058	2730
741.109	2666
741.161	2730
741.212	2710
741.263	2750
741.314	2714
741.366	2730
741.417	2738
741.468	2724
741.52	2668
741.571	2718
741.622	2716
741.673	2718
741.725	2736
741.776	2686
741.827	2706
741.878	2652
741.93	2652
741.981	2704
742.032	2692
742.083	2656
742.135	2690
742.186	2688
742.237	2676
742.289	2670
742.34	2694
742.391	2708
742.442	2700
742.494	2666
742.545	2614
742.596	2658
742.647	2620
742.699	2652
742.75	2642
742.801	2626
742.852	2642
742.904	2702
742.955	2632
743.006	2634
743.057	2622
743.109	2608
743.16	2606
743.211	2632
743.263	2574
743.314	2632
743.365	2608
743.416	2596
743.468	2600
743.519	2582
743.57	2608
743.621	2590
743.672	2592
743.724	2594
743.775	2592
743.826	2596
743.878	2614
743.929	2628
743.98	2616
744.031	2572
744.083	2546
744.134	2552
744.185	2534
744.236	2544
744.287	2542
744.339	2566
744.39	2516
744.441	2574
744.492	2522
744.544	2508
744.595	2494
744.646	2558
744.697	2542
744.749	2542
744.8	2530
744.851	2564
744.902	2532
744.954	2504
745.005	2524
745.056	2506
745.107	2508
745.159	2470
745.21	2494
745.261	2520
745.312	2544
745.363	2518
745.415	2476
745.466	2506
745.517	2520
745.568	2518
745.62	2524
745.671	2522
745.722	2532
745.773	2520
745.824	2478
745.876	2482
745.927	2476
745.978	2508
746.029	2490
746.081	2504
746.132	2488
746.183	2462
746.234	2458
746.285	2474
746.337	2498
746.388	2450
746.439	2486
746.49	2412
746.542	2426
746.593	2446
746.644	2454
746.695	2454
746.746	2428
746.798	2442
746.849	2432
746.9	2464
746.951	2458
747.003	2392
747.054	2428
747.105	2416
747.156	2428
747.207	2430
747.259	2412
747.31	2462
747.361	2440
747.412	2434
747.463	2424
747.515	2422
747.566	2366
747.617	2388
747.668	2426
747.719	2424
747.771	2422
747.822	2420
747.873	2372
747.924	2398
747.975	2440
748.027	2388
748.078	2450
748.129	2418
748.18	2386
748.231	2362
748.283	2386
748.334	2418
748.385	2398
748.436	2390
748.487	2366
748.539	2404
748.59	2390
748.641	2332
748.692	2324
748.743	2360
748.795	2382
748.846	2328
748.897	2370
748.948	2390
748.999	2386
749.05	2290
749.102	2346
749.153	2326
749.204	2386
749.255	2358
749.306	2338
749.358	2386
749.409	2326
749.46	2324
749.511	2266
749.562	2328
749.614	2296
749.665	2324
749.716	2348
749.767	2368
749.818	2304
749.869	2318
749.921	2316
749.972	2324
750.023	2304
750.074	2270
750.125	2316
750.177	2362
750.228	2276
750.279	2320
750.33	2332
750.381	2338
750.432	2314
750.484	2278
750.535	2298
750.586	2276
750.637	2250
750.688	2286
750.739	2262
750.791	2256
750.842	2286
750.893	2308
750.944	2292
750.995	2286
751.046	2250
751.098	2306
751.149	2260
751.2	2226
751.251	2232
751.302	2244
751.353	2252
751.404	2274
751.456	2274
751.507	2242
751.558	2230
751.609	2270
751.66	2230
751.711	2202
751.763	2234
751.814	2234
751.865	2250
751.916	2224
751.967	2222
752.018	2200
752.07	2260
752.121	2210
752.172	2228
752.223	2204
752.274	2206
752.325	2186
752.376	2174
752.428	2160
752.479	2202
752.53	2212
752.581	2250
752.632	2208
752.683	2196
752.734	2200
752.786	2174
752.837	2170
752.888	2132
752.939	2220
752.99	2138
753.041	2214
753.092	2168
753.144	2138
753.195	2166
753.246	2104
753.297	2164
753.348	2150
753.399	2146
753.45	2146
753.502	2148
753.553	2124
753.604	2132
753.655	2128
753.706	2136
753.757	2180
753.808	2112
753.859	2118
753.911	2130
753.962	2104
754.013	2126
754.064	2134
754.115	2122
754.166	2106
754.217	2106
754.269	2130
754.32	2098
754.371	2032
754.422	2086
754.473	2114
754.524	2104
754.575	2096
754.626	2088
754.678	2100
754.729	2094
754.78	2058
754.831	2074
754.882	2108
754.933	2074
754.984	2046
755.035	2082
755.086	2104
755.138	2082
755.189	2056
755.24	2030
755.291	2112
755.342	2010
755.393	2072
755.444	2056
755.495	2074
755.547	2066
755.598	2050
755.649	2050
755.7	2016
755.751	2062
755.802	2062
755.853	2072
755.904	2038
755.955	2038
756.006	2014
756.058	1968
756.109	1998
756.16	2056
756.211	1970
756.262	2016
756.313	2034
756.364	1960
756.415	1952
756.466	1998
756.518	2012
756.569	2018
756.62	1996
756.671	2058
756.722	2016
756.773	1958
756.824	1990
756.875	2000
756.926	1978
756.977	2028
757.029	1978
757.08	2004
757.131	1956
757.182	1994
757.233	2004
757.284	1940
757.335	1974
757.386	1964
757.437	1940
757.488	1984
757.539	1922
757.59	1924
757.642	1974
757.693	1958
757.744	1938
757.795	1988
757.846	1918
757.897	1938
757.948	1932
757.999	1960
758.05	1962
758.101	1976
758.152	1926
758.203	1908
758.255	1942
758.306	1924
758.357	1936
758.408	1936
758.459	1922
758.51	1894.15
758.561	1925.98
758.612	1925.06
758.663	1906.17
758.714	1917.88
758.765	1924.67
758.816	1921.83
758.867	1909.14
758.919	1886.9
758.97	1876.64
759.021	1889.4
759.072	1887.63
759.123	1923.82
759.174	1923.05
759.225	1871.95
759.276	1890.14
759.327	1892.18
759.378	1873.46
759.429	1885.63
759.48	1870.65
759.531	1899.53
759.582	1858.73
759.633	1869.9
759.685	1850.22
759.736	1845.9
759.787	1813.58
759.838	1880.96
759.889	1860.63
759.94	1873.33
759.991	1862.77
760.042	1842.95
760.093	1810.37
760.144	1821.18
760.195	1848.6
760.246	1840.73
760.297	1845.99
760.348	1805.54
760.399	1838.33
760.45	1831.8
760.501	1825.42
760.552	1821.33
760.603	1835.82
760.655	1796.89
760.706	1795.09
760.757	1825.38
760.808	1830.09
760.859	1817.77
760.91	1772.82
760.961	1802.36
761.012	1800.99
761.063	1802.79
761.114	1788.91
761.165	1804.24
761.216	1777.8
761.267	1755.81
761.318	1797.8
761.369	1793.32
761.42	1790.46
761.471	1787.72
761.522	1792.39
761.573	1785.49
761.624	1812.73
761.675	1771.32
761.726	1817.97
761.777	1772.23
761.828	1793.92
761.88	1784.15
761.931	1753.06
761.982	1785.87
762.033	1778.76
762.084	1783.31
762.135	1742.38
762.186	1764.06
762.237	1750.96
762.288	1720.48
762.339	1739.19
762.39	1776.14
762.441	1760.6
762.492	1720.27
762.543	1758.25
762.594	1724.34
762.645	1714.71
762.696	1738.26
762.747	1738.31
762.798	1752.81
762.849	1751.89
762.9	1690.6
762.951	1710.63
763.002	1721.71
763.053	1729.76
763.104	1705.58
763.155	1727.21
763.206	1702.69
763.257	1689.89
763.308	1706.66
763.359	1672.89
763.41	1700.3
763.461	1700.42
763.512	1689.89
763.563	1724.27
763.614	1724.58
763.665	1664.53
763.678	1646
763.729	1706
763.78	1678
763.832	1676
763.883	1688
763.934	1688
763.986	1700
764.037	1700
764.088	1688
764.139	1668
764.191	1696
764.242	1652
764.293	1672
764.345	1614
764.396	1652
764.447	1690
764.498	1678
764.55	1734
764.601	1654
764.652	1638
764.704	1654
764.755	1646
764.806	1632
764.857	1688
764.909	1608
764.96	1638
765.011	1660
765.062	1616
765.114	1646
765.165	1622
765.216	1618
765.268	1664
765.319	1650
765.37	1618
765.421	1632
765.473	1596
765.524	1602
765.575	1626
765.626	1620
765.678	1618
765.729	1622
765.78	1632
765.831	1572
765.883	1622
765.934	1578
765.985	1608
766.036	1596
766.088	1590
766.139	1574
766.19	1604
766.242	1524
766.293	1656
766.344	1596
766.395	1578
766.447	1628
766.498	1570
766.549	1574
766.6	1572
766.652	1504
766.703	1558
766.754	1536
766.805	1606
766.857	1570
766.908	1590
766.959	1544
767.01	1552
767.062	1542
767.113	1550
767.164	1576
767.215	1582
767.267	1558
767.318	1586
767.369	1538
767.42	1548
767.472	1572
767.523	1526
767.574	1516
767.625	1512
767.677	1534
767.728	1520
767.779	1596
767.83	1526
767.882	1518
767.933	1490
767.984	1532
768.035	1524
768.087	1562
768.138	1512
768.189	1528
768.24	1534
768.292	1496
768.343	1506
768.394	1500
768.445	1472
768.497	1510
768.548	1504
768.599	1466
768.65	1482
768.701	1484
768.753	1480
768.804	1520
768.855	1490
768.906	1480
768.958	1436
769.009	1504
769.06	1446
769.111	1492
769.163	1502
769.214	1464
769.265	1484
769.316	1468
769.367	1494
769.419	1430
769.47	1478
769.521	1452
769.572	1444
769.624	1452
769.675	1450
769.726	1444
769.777	1416
769.828	1436
769.88	1472
769.931	1462
769.982	1434
770.033	1434
770.085	1410
770.136	1434
770.187	1420
770.238	1420
770.289	1408
770.341	1404
770.392	1414
770.443	1412
770.494	1434
770.546	1386
770.597	1430
770.648	1442
770.699	1410
770.75	1440
770.802	1364
770.853	1420
770.904	1402
770.955	1420
771.006	1390
771.058	1406
771.109	1370
771.16	1410
771.211	1426
771.263	1366
771.314	1392
771.365	1388
771.416	1354
771.467	1392
771.519	1362
771.57	1374
771.621	1364
771.672	1358
771.723	1360
771.775	1354
771.826	1348
771.877	1366
771.928	1356
771.979	1372
772.031	1352
772.082	1336
772.133	1330
772.184	1366
772.235	1366
772.287	1388
772.338	1384
772.389	1348
772.44	1356
772.491	1368
772.543	1306
772.594	1326
772.645	1346
772.696	1336
772.747	1370
772.799	1322
772.85	1316
772.901	1292
772.952	1316
773.003	1346
773.055	1328
773.106	1348
773.157	1286
773.208	1320
773.259	1306
773.31	1306
773.362	1318
773.413	1300
773.464	1284
773.515	1292
773.566	1316
773.618	1260
773.669	1284
773.72	1304
773.771	1292
773.822	1268
773.873	1318
773.925	1308
773.976	1314
774.027	1286
774.078	1280
774.129	1278
774.18	1248
774.232	1254
774.283	1270
774.334	1288
774.385	1288
774.436	1248
774.488	1258
774.539	1238
774.59	1280
774.641	1234
774.692	1254
774.743	1262
774.795	1224
774.846	1266
774.897	1264
774.948	1264
774.999	1230
775.05	1230
775.102	1234
775.153	1242
775.204	1264
775.255	1206
775.306	1256
775.357	1252
775.409	1244
775.46	1264
775.511	1238
775.562	1234
775.613	1224
775.664	1214
775.716	1212
775.767	1250
775.818	1218
775.869	1244
775.92	1210
775.971	1200
776.023	1226
776.074	1192
776.125	1212
776.176	1168
776.227	1194
776.278	1200
776.329	1174
776.381	1208
776.432	1152
776.483	1200
776.534	1204
776.585	1200
776.636	1204
776.688	1148
776.739	1190
776.79	1166
776.841	1174
776.892	1204
776.943	1166
776.994	1170
777.046	1184
777.097	1194
777.148	1214
777.199	1186
777.25	1174
777.301	1140
777.352	1168
777.404	1172
777.455	1150
777.506	1148
777.557	1166
777.608	1180
777.659	1146
777.71	1160
777.762	1158
777.813	1150
777.864	1130
777.915	1134
777.966	1152
778.017	1190
778.068	1160
778.12	1154
778.171	1166
778.222	1120
778.273	1162
778.324	1096
778.375	1154
778.426	1132
778.477	1108
778.529	1136
778.58	1142
778.631	1104
778.682	1118
778.733	1124
778.784	1110
778.835	1104
778.886	1146
778.938	1138
778.989	1124
779.04	1096
779.091	1090
779.142	1102
779.193	1116
779.244	1102
779.295	1094
779.347	1110
779.398	1112
779.449	1098
779.5	1118
779.551	1104
779.602	1102
779.653	1094
779.704	1120
779.755	1038
779.807	1090
779.858	1078
779.909	1072
779.96	1088
780.011	1088
780.062	1076
780.113	1064
780.164	1060
780.216	1100
780.267	1086
780.318	1042
780.369	1100
780.42	1064
780.471	1048
780.522	1020
780.573	1084
780.624	1042
780.675	1078
780.727	1078
780.778	1038
780.829	1056
780.88	1062
780.931	1086
780.982	1048
781.033	1062
781.084	1004
781.135	1040
781.187	1012
781.238	1036
781.289	1082
781.34	1068
781.391	1066
781.442	996
781.493	1024
781.544	1016
781.595	1046
781.646	1064
781.698	1014
781.749	1034
781.8	1018
781.851	1012
781.902	1004
781.953	1032
782.004	1008
782.055	1036
782.106	1010
782.157	1032
782.208	1010
782.26	1020
782.311	1004
782.362	1020
782.413	1012
782.464	1024
782.515	1012
782.566	982
782.617	1020
782.668	998
782.719	982
782.77	1002
782.821	948
782.872	1002
782.924	1000
782.975	1014
783.026	1000
783.077	1010
783.128	956
783.179	966
783.23	962
783.281	966
783.332	1002
783.383	990
783.434	992
783.485	1002
783.536	990
783.588	948
783.639	950
783.69	972
783.741	958
783.792	942
783.843	960
783.894	942
783.945	952
783.996	980
784.047	962
784.098	974
784.149	928
784.2	924
784.252	958
784.303	946
784.354	934
784.405	918
784.456	952
784.507	974
784.558	962
784.609	942
784.66	948
784.711	944
784.762	938
784.813	946
784.864	946
784.915	942
784.966	930
785.017	904
785.068	932
785.12	916
785.171	938
785.222	958
785.273	942
785.324	926
785.375	900
785.426	902
785.477	932
785.528	912
785.579	890
785.63	912
785.681	916
785.732	942
785.783	890
785.834	934
785.885	940
785.936	878
785.987	898
786.038	886
786.089	894
786.141	878
786.192	902
786.243	918
786.294	908
786.345	916
786.396	898
786.447	910
786.498	892
786.549	886
786.6	878
786.651	904
786.702	882
786.753	900
786.804	886
786.855	880
786.906	898
786.957	862
787.008	896
787.059	892
787.11	900
787.161	902
787.212	856
787.263	874
787.314	870
787.365	866
787.416	878
787.467	856
787.518	872
787.57	894
787.621	870
787.672	856
787.723	862
787.774	876
787.825	858
787.876	856
787.927	874
787.978	850
788.029	856
788.08	842
788.131	832
788.182	844
788.233	868
788.284	854
788.335	836
788.386	834
788.437	840
788.488	842
788.539	842
788.59	838
788.641	826
788.692	840
788.743	842
788.794	870
788.845	854
788.896	842
788.947	814
788.998	814
789.049	838
789.1	826
789.151	816
789.202	820
789.253	834
789.304	812
789.355	804
789.406	838
789.457	832
789.508	840
789.559	846
789.61	838
789.661	826
789.712	814
789.763	802
789.814	788
789.865	806
789.916	820
789.967	796
790.018	790
790.069	794
790.12	774
790.171	818
790.222	822
790.273	798
790.324	798
790.375	784
790.426	796
790.477	800
790.528	790
790.579	784
790.63	788
790.681	784
790.732	786
790.783	800
790.834	752
790.885	776
790.936	792
790.987	792
791.038	806
791.089	792
791.14	792
791.191	804
791.242	778
791.293	778
791.344	758
791.395	768
791.446	778
791.497	742
791.548	770
791.599	780
791.65	768
791.701	782
791.752	774
791.803	780
791.854	758
791.905	756
791.956	772
792.007	762
792.058	772
792.109	752
792.16	760
792.211	748
792.262	726
792.313	750
792.363	730
792.414	768
792.465	756
792.516	734
792.567	738
792.618	736
792.669	742
792.72	730
792.771	728
792.822	738
792.873	708
792.924	708
792.975	720
793.026	736
793.077	754
793.128	710
793.179	734
793.23	716
793.281	706
793.332	732
793.383	726
793.434	744
793.485	748
793.536	724
793.587	716
793.638	728
793.689	688
793.74	694
793.79	742
793.841	714
793.892	702
793.943	706
793.994	728
794.045	702
794.096	714
794.147	704
794.198	692
794.249	682
794.3	704
794.351	678
794.402	724
794.453	704
794.504	702
794.555	710
794.606	700
794.657	684
794.708	646
794.758	722
794.809	724
794.86	706
794.911	678
794.962	688
795.013	700
795.064	692
795.115	668
795.166	680
795.217	684
795.268	672
795.319	664
795.37	694
795.421	670
795.472	664
795.523	656
795.573	676
795.624	678
795.675	656
795.726	662
795.777	658
795.828	682
795.879	684
795.93	674
795.981	680
796.032	690
796.083	632
796.134	668
796.185	688
796.236	646
796.286	676
796.337	644
796.388	650
796.439	658
796.49	630
796.541	672
796.592	660
796.643	660
796.694	648
796.745	642
796.796	644
796.847	660
796.897	654
796.948	678
796.999	644
797.05	638
797.101	668
797.152	670
797.203	652
797.254	666
797.305	654
797.356	636
797.407	634
797.458	624
797.508	626
797.559	638
797.61	636
797.661	634
797.712	654
797.763	638
797.814	628
797.865	638
797.916	618
797.967	620
798.018	632
798.068	620
798.119	608
798.17	602
798.221	616
798.272	644
798.323	622
798.374	624
798.425	620
798.476	630
798.526	618
798.577	622
798.628	624
798.679	606
798.73	614
798.781	632
798.832	614
798.883	600
798.934	638
798.984	598
799.035	612
799.086	608
799.137	626
799.188	596
799.239	604
799.29	582
799.341	606
799.392	602
799.443	610
799.493	606
799.544	604
799.595	622
799.646	606
799.697	606
799.748	610
799.799	610
799.85	600
799.9	622
799.951	582
800.002	600
800.053	570
800.104	592
800.155	600
800.206	578
800.257	580
800.307	574
800.358	598
800.409	566
800.46	586
800.511	594
800.562	574
800.613	568
800.664	596
800.714	568
800.765	592
800.816	570
800.867	576
800.918	574
800.969	598
801.02	552
801.07	588
801.121	600
801.172	570
801.223	580
801.274	538
801.325	584
801.376	564
801.427	554
801.477	576
801.528	554
801.579	560
801.63	554
801.681	558
801.732	568
801.783	538
801.833	556
801.884	542
801.935	548
801.986	544
802.037	564
802.088	544
802.139	568
802.189	546
802.24	552
802.291	536
802.342	532
802.393	530
802.444	544
802.495	540
802.545	534
802.596	552
802.647	544
802.698	540
802.749	556
802.8	550
802.85	546
802.901	534
802.952	548
803.003	544
803.054	516
803.105	520
803.155	528
803.206	528
803.257	544
803.308	532
803.359	546
803.41	550
803.46	526
803.511	550
803.562	544
803.613	516
803.664	566
803.715	532
803.765	524
803.816	534
803.867	510
803.918	520
803.969	504
804.02	522
804.07	514
804.121	504
804.172	524
804.223	518
804.274	506
804.325	512
804.375	492
804.426	510
804.477	518
804.528	500
804.579	516
804.63	498
804.68	516
804.731	510
804.782	520
804.833	514
804.884	532
804.934	484
804.985	510
805.036	520
805.087	518
805.138	522
805.188	488
805.239	512
805.29	506
805.341	518
805.392	504
805.443	504
805.493	504.032
805.544	468.382
805.595	497.772
805.646	503.126
805.697	520.376
805.747	511.033
805.798	511.119
805.849	504.635
805.9	491.006
805.951	493.115
806.001	498.491
806.052	482.948
806.103	508.995
806.154	502.576
806.205	487.066
806.255	478.702
806.306	499.209
806.357	494.112
806.408	479.38
806.459	483.289
806.509	499.99
806.56	497.458
806.611	488.176
806.662	478.124
806.713	479.346
806.763	493.45
806.814	483.015
806.865	484.338
806.916	491.305
806.967	482.898
807.017	493.496
807.068	485.983
807.119	478.388
807.17	471.463
807.22	483.928
807.271	465.285
807.322	485.598
807.373	470.206
807.424	479.984
807.474	472.115
807.525	485.235
807.576	475.441
807.627	473.246
807.678	475.01
807.728	467.974
807.779	476.396
807.83	476.723
807.881	474.327
807.931	463.832
807.982	459.139
808.033	466.99
808.084	469.569
808.135	466.005
808.185	460.661
808.236	463.885
808.287	482.182
808.338	459.161
808.388	459.045
808.439	459.487
808.49	461.422
808.541	464.054
808.591	465.506
808.642	452.012
808.693	463.026
808.744	466.427
808.795	457.276
808.845	461.178
808.896	460.114
808.947	462.549
808.998	459.465
809.048	462.51
809.099	442.861
809.15	450.559
809.201	444.324
809.251	451.931
809.302	449.341
809.353	464.677
809.404	454.921
809.454	465.772
809.505	443.355
809.556	443.205
809.607	415.208
809.658	458.995
809.708	445.857
809.759	462.96
809.81	465.016
809.861	455.283
809.911	430.309
809.962	446.062
810.013	441.395
810.064	427.826
810.114	431.122
810.165	444.354
810.216	440.607
810.267	430.705
810.317	424.269
810.368	441.687
810.419	432.345
810.469	442.339
810.52	431.209
810.571	431.895
810.622	432.098
810.627	432
810.678	438
810.729	438
810.78	436
810.831	430
810.882	426
810.933	420
810.984	394
811.035	424
811.086	426
811.137	406
811.188	404
811.239	432
811.29	444
811.341	398
811.392	424
811.443	430
811.494	416
811.545	424
811.596	418
811.648	436
811.699	430
811.75	410
811.801	424
811.852	412
811.903	426
811.954	402
812.005	414
812.056	426
812.107	418
812.158	410
812.209	404
812.26	398
812.311	402
812.362	400
812.413	418
812.464	410
812.515	406
812.566	392
812.617	410
812.668	412
812.719	422
812.77	414
812.821	390
812.872	426
812.923	406
812.974	406
813.025	402
813.076	394
813.127	400
813.178	382
813.229	412
813.28	406
813.331	398
813.382	416
813.433	390
813.484	402
813.535	394
813.586	390
813.637	392
813.688	374
813.739	388
813.79	380
813.841	406
813.892	378
813.943	394
813.994	396
814.045	398
814.096	374
814.147	376
814.198	390
814.249	380
814.3	392
814.351	386
814.402	378
814.453	386
814.504	382
814.555	388
814.606	362
814.657	380
814.708	374
814.759	372
814.81	382
814.861	380
814.912	382
814.963	376
815.014	372
815.065	380
815.116	386
815.167	374
815.217	382
815.268	396
815.319	378
815.37	360
815.421	392
815.472	376
815.523	366
815.574	390
815.625	384
815.676	354
815.727	358
815.778	376
815.829	366
815.88	364
815.931	358
815.982	362
816.033	378
816.084	364
816.135	358
816.186	370
816.237	380
816.288	372
816.339	380
816.39	354
816.441	358
816.492	364
816.543	362
816.594	370
816.645	376
816.696	364
816.747	354
816.798	374
816.849	362
816.9	368
816.951	350
817.001	360
817.052	376
817.103	362
817.154	360
817.205	346
817.256	356
817.307	358
817.358	360
817.409	350
817.46	350
817.511	364
817.562	358
817.613	340
817.664	370
817.715	360
817.766	358
817.817	352
817.868	332
817.919	350
817.97	346
818.021	366
818.071	368
818.122	338
818.173	354
818.224	336
818.275	346
818.326	330
818.377	348
818.428	346
818.479	330
818.53	354
818.581	334
818.632	336
818.683	346
818.734	338
818.785	340
818.836	328
818.887	336
818.938	328
818.988	330
819.039	344
819.09	352
819.141	330
819.192	352
819.243	340
819.294	338
819.345	310
819.396	346
819.447	332
819.498	330
819.549	338
819.6	326
819.651	328
819.702	322
819.753	332
819.803	314
819.854	326
819.905	328
819.956	324
820.007	320
820.058	328
820.109	344
820.16	322
820.211	326
820.262	356
820.313	336
820.364	324
820.415	308
820.465	338
820.516	314
820.567	324
820.618	322
820.669	316
820.72	312
820.771	332
820.822	328
820.873	350
820.924	292
820.975	330
821.026	320
821.076	336
821.127	320
821.178	318
821.229	334
821.28	318
821.331	326
821.382	344
821.433	298
821.484	316
821.535	308
821.586	324
821.637	316
821.687	290
821.738	322
821.789	310
821.84	304
821.891	318
821.942	312
821.993	300
822.044	316
822.095	308
822.146	306
822.196	316
822.247	316
822.298	310
822.349	314
822.4	316
822.451	300
822.502	302
822.553	302
822.604	284
822.655	328
822.706	304
822.756	310
822.807	276
822.858	312
822.909	298
822.96	310
823.011	294
823.062	304
823.113	286
823.164	328
823.214	306
823.265	300
823.316	300
823.367	306
823.418	298
823.469	298
823.52	300
823.571	312
823.622	288
823.672	308
823.723	286
823.774	284
823.825	298
823.876	300
823.927	308
823.978	300
824.029	306
824.08	290
824.13	300
824.181	284
824.232	302
824.283	294
824.334	298
824.385	288
824.436	288
824.487	282
824.537	306
824.588	304
824.639	284
824.69	280
824.741	286
824.792	290
824.843	290
824.893	290
824.944	290
824.995	280
825.046	294
825.097	294
825.148	290
825.199	282
825.25	292
825.3	278
825.351	286
825.402	280
825.453	290
825.504	286
825.555	298
825.606	280
825.657	264
825.707	280
825.758	278
825.809	272
825.86	270
825.911	278
825.962	276
826.013	270
826.063	300
826.114	276
826.165	270
826.216	282
826.267	258
826.318	292
826.369	276
826.419	272
826.47	282
826.521	270
826.572	280
826.623	276
826.674	260
826.725	258
826.775	280
826.826	272
826.877	278
826.928	274
826.979	264
827.03	278
827.08	288
827.131	280
827.182	270
827.233	248
827.284	270
827.335	274
827.386	270
827.436	250
827.487	274
827.538	270
827.589	268
827.64	272
827.691	276
827.741	268
827.792	268
827.843	272
827.894	266
827.945	278
827.996	280
828.046	254
828.097	268
828.148	246
828.199	278
828.25	280
828.301	256
828.351	252
828.402	288
828.453	280
828.504	274
828.555	264
828.606	256
828.656	270
828.707	252
828.758	256
828.809	258
828.86	264
828.911	258
828.961	254
829.012	256
829.063	254
829.114	258
829.165	266
829.216	264
829.266	258
829.317	264
829.368	248
829.419	258
829.47	264
829.52	268
829.571	256
829.622	254
829.673	256
829.724	262
829.774	252
829.825	258
829.876	254
829.927	250
829.978	250
830.029	264
830.079	246
830.13	242
830.181	254
830.232	254
830.283	268
830.333	242
830.384	266
830.435	244
830.486	248
830.537	246
830.587	264
830.638	252
830.689	258
830.74	252
830.791	258
830.841	258
830.892	256
830.943	236
830.994	252
831.045	252
831.095	238
831.146	248
831.197	242
831.248	254
831.299	234
831.349	244
831.4	244
831.451	236
831.502	238
831.553	254
831.603	260
831.654	254
831.705	246
831.756	256
831.807	250
831.857	236
831.908	238
831.959	246
832.01	232
832.061	262
832.111	242
832.162	240
832.213	236
832.264	248
832.315	234
832.365	256
832.416	244
832.467	246
832.518	246
832.568	226
832.619	240
832.67	244
832.721	240
832.772	222
832.822	238
832.873	242
832.924	246
832.975	234
833.025	238
833.076	232
833.127	236
833.178	234
833.229	242
833.279	230
833.33	222
833.381	218
833.432	252
833.482	224
833.533	238
833.584	230
833.635	242
833.685	232
833.736	234
833.787	240
833.838	238
833.889	226
833.939	224
833.99	232
834.041	228
834.092	236
834.142	220
834.193	228
834.244	240
834.295	238
834.345	226
834.396	240
834.447	244
834.498	228
834.548	228
834.599	218
834.65	246
834.701	218
834.751	230
834.802	232
834.853	230
834.904	222
834.954	224
835.005	204
835.056	218
835.107	224
835.157	210
835.208	214
835.259	224
835.31	230
835.36	228
835.411	224
835.462	220
835.513	226
835.563	216
835.614	240
835.665	206
835.716	222
835.766	204
835.817	234
835.868	212
835.919	218
835.969	210
836.02	218
836.071	232
836.122	222
836.172	212
836.223	238
836.274	200
836.325	222
836.375	216
836.426	218
836.477	222
836.528	204
836.578	224
836.629	220
836.68	220
836.73	204
836.781	224
836.832	210
836.883	198
836.933	220
836.984	212
837.035	230
837.086	202
837.136	192
837.187	224
837.238	222
837.288	206
837.339	206
837.39	226
837.441	232
837.491	226
837.542	228
837.593	206
837.643	218
837.694	220
837.745	206
837.796	218
837.846	216
837.897	204
837.948	220
837.999	224
838.049	198
838.1	206
838.151	202
838.201	222
838.252	202
838.303	206
838.354	214
838.404	222
838.455	200
838.506	204
838.556	208
838.607	204
838.658	204
838.708	210
838.759	224
838.81	216
838.861	196
838.911	192
838.962	206
839.013	212
839.063	200
839.114	204
839.165	198
839.216	196
839.266	200
839.317	184
839.368	202
839.418	206
839.469	186
839.52	196
839.57	212
839.621	200
839.672	202
839.722	196
839.773	198
839.824	210
839.875	192
839.925	200
839.976	210
840.027	212
840.077	200
840.128	206
840.179	198
840.229	180
840.28	194
840.331	208
840.381	210
840.432	186
840.483	192
840.534	204
840.584	196
840.635	196
840.686	202
840.736	202
840.787	200
840.838	198
840.888	180
840.939	202
840.99	182
841.04	194
841.091	196
841.142	196
841.192	186
841.243	188
841.294	192
841.344	184
841.395	202
841.446	182
841.496	198
841.547	202
841.598	198
841.648	196
841.699	190
841.75	200
841.8	198
841.851	200
841.902	198
841.952	194
842.003	194
842.054	190
842.104	194
842.155	188
842.206	190
842.256	192
842.307	194
842.358	192
842.408	186
842.459	196
842.51	194
842.56	192
842.611	190
842.662	198
842.712	192
842.763	186
842.814	196
842.864	188
842.915	200
842.966	206
843.016	194
843.067	194
843.118	196
843.168	176
843.219	178
843.269	172
843.32	188
843.371	176
843.421	186
843.472	190
843.523	180
843.573	176
843.624	190
843.675	188
843.725	190
843.776	180
843.827	186
843.877	190
843.928	184
843.979	182
844.029	158
844.08	176
844.13	188
844.181	178
844.232	182
844.282	176
844.333	180
844.384	172
844.434	178
844.485	192
844.536	182
844.586	170
844.637	176
844.687	188
844.738	196
844.789	160
844.839	166
844.89	178
844.941	186
844.991	180
845.042	180
845.092	180
845.143	178
845.194	176
845.244	190
845.295	184
845.346	170
845.396	180
845.447	170
845.497	178
845.548	186
845.599	178
845.649	168
845.7	182
845.75	168
845.801	188
845.852	182
845.902	192
845.953	158
846.004	178
846.054	178
846.105	166
846.155	172
846.206	174
846.257	184
846.307	166
846.358	180
846.409	164
846.459	178
846.51	172
846.56	170
846.611	162
846.661	176
846.712	166
846.763	178
846.813	172
846.864	184
846.915	172
846.965	168
847.016	168
847.066	186
847.117	170
847.168	154
847.218	164
847.269	170
847.319	168
847.37	176
847.421	170
847.471	168
847.522	160
847.572	148
847.623	170
847.674	156
847.724	160
847.775	164
847.825	184
847.876	170
847.926	170
847.977	178
848.028	164
848.078	170
848.129	144
848.179	164
848.23	172
848.281	170
848.331	158
848.382	168
848.432	174
848.483	156
848.534	160
848.584	148
848.635	172
848.685	166
848.736	160
848.786	156
848.837	176
848.888	164
848.938	162
848.989	162
849.039	154
849.09	170
849.14	158
849.191	162
849.242	166
849.292	164
849.343	152
849.393	164
849.444	166
849.494	158
849.545	160
849.596	160
849.646	160
849.697	152
849.747	164
849.798	160
849.848	160
849.899	170
849.95	166
850	164
850.051	154
850.101	162
850.152	138
850.202	164
850.253	156
850.303	142
850.354	160
850.405	158
850.455	160
850.506	158
850.556	158
850.607	152
850.657	170
850.708	156
850.758	156
850.809	154
850.86	168
850.91	152
850.961	158
851.011	158
851.062	158
851.112	152
851.163	168
851.213	148
851.264	158
851.314	150
851.365	162
851.416	156
851.466	146
851.517	152
851.567	152
851.618	136
851.668	152
851.719	138
851.769	146
851.82	166
851.87	146
851.921	152
851.971	142
852.022	154
852.073	152
852.123	142
852.174	148
852.224	150
852.275	156
852.325	163.928
852.376	155.766
852.426	152.096
852.477	148.001
852.527	149.042
852.578	147.671
852.628	136.779
852.679	137.197
852.729	155.828
852.78	148.198
852.831	138.798
852.881	143.72
852.932	159.437
852.982	153.495
853.033	134.886
853.083	142.601
853.134	136.912
853.184	155.855
853.235	140.766
853.285	138.449
853.336	144.394
853.386	147.028
853.437	150.847
853.487	140.35
853.538	153.162
853.588	143.222
853.639	144.497
853.689	140.676
853.74	149.916
853.79	143.54
853.841	144.155
853.891	133.645
853.942	148.2
853.992	150.018
854.043	148.354
854.093	144.731
854.144	148.504
854.194	136.305
854.245	139.822
854.295	150.571
854.346	140.096
854.396	139.709
854.447	135.49
854.497	148.623
854.548	144.913
854.598	144.793
854.649	144.778
854.699	140.2
854.75	138.803
854.8	137.029
854.851	146.503
854.901	137.593
854.952	141.734
855.002	139.044
855.053	137.642
855.103	144.025
855.154	137.548
855.204	141.009
855.255	135.151
855.305	140.2
855.356	139.173
855.406	136.85
855.457	138.095
855.507	142.799
855.558	143.556
855.608	140.697
855.659	139.99
855.709	139.362
855.76	130.131
855.81	139.382
855.861	136.474
855.911	141.558
855.962	139.8
856.012	139.085
856.063	136.753
856.113	135.205
856.164	134.059
856.214	137.727
856.265	137.586
856.315	135.242
856.366	129.237
856.416	137.63
856.467	136.308
856.517	134.282
856.568	136.142
856.618	138.148
856.668	140.117
856.719	139.072
856.769	133.031
856.82	126.699
856.87	132.645
856.921	132.679
856.971	129.377
857.022	130.39
857.072	128.586
857.123	126.155
857.173	125.341
857.224	132.939
857.274	134.578
857.325	131.584
857.352	136
857.403	140
857.453	130
857.504	124
857.555	124
857.606	136
857.656	128
857.707	134
857.758	128
857.809	136
857.859	136
857.91	134
857.961	136
858.012	138
858.063	138
858.113	132
858.164	126
858.215	136
858.266	140
858.316	136
858.367	124
858.418	132
858.469	132
858.519	140
858.57	122
858.621	138
858.672	136
858.722	138
858.773	126
858.824	128
858.875	138
858.925	128
858.976	124
859.027	136
859.078	132
859.128	126
859.179	134
859.23	134
859.281	132
859.331	134
859.382	138
859.433	136
859.483	130
859.534	124
859.585	130
859.636	132
859.686	136
859.737	136
859.788	136
859.839	134
859.889	130
859.94	116
859.991	116
860.042	122
860.092	108
860.143	134
860.194	136
860.245	118
860.295	124
860.346	118
860.397	120
860.447	120
860.498	120
860.549	126
860.6	122
860.65	126
860.701	120
860.752	132
860.802	120
860.853	116
860.904	138
860.955	128
861.005	128
861.056	142
861.107	128
861.158	128
861.208	124
861.259	130
861.31	122
861.36	122
861.411	116
861.462	120
861.513	116
861.563	126
861.614	114
861.665	126
861.715	134
861.766	124
861.817	136
861.868	130
861.918	112
861.969	122
862.02	132
862.07	134
862.121	114
862.172	126
862.223	120
862.273	112
862.324	116
862.375	122
862.425	126
862.476	122
862.527	122
862.577	118
862.628	118
862.679	120
862.73	118
862.78	130
862.831	130
862.882	106
862.932	124
862.983	114
863.034	110
863.084	98
863.135	120
863.186	116
863.237	122
863.287	118
863.338	112
863.389	110
863.439	124
863.49	112
863.541	118
863.591	126
863.642	116
863.693	116
863.744	126
863.794	116
863.845	116
863.896	114
863.946	112
863.997	124
864.048	102
864.098	112
864.149	114
864.2	120
864.25	122
864.301	122
864.352	112
864.402	124
864.453	102
864.504	108
864.555	114
864.605	120
864.656	98
864.707	110
864.757	112
864.808	114
864.859	116
864.909	122
864.96	116
865.011	112
865.061	110
865.112	112
865.163	110
865.213	116
865.264	108
865.315	130
865.365	118
865.416	112
865.467	114
865.517	108
865.568	106
865.619	114
865.669	112
865.72	120
865.771	110
865.821	108
865.872	104
865.923	112
865.973	118
866.024	120
866.075	102
866.125	114
866.176	114
866.227	118
866.277	90
866.328	112
866.379	118
866.429	112
866.48	110
866.531	112
866.581	122
866.632	102
866.683	104
866.733	116
866.784	120
866.835	110
866.885	104
866.936	116
866.987	108
867.037	106
867.088	116
867.138	114
867.189	104
867.24	108
867.29	106
867.341	106
867.392	98
867.442	92
867.493	104
867.544	106
867.594	106
867.645	108
867.696	124
867.746	120
867.797	110
867.848	96
867.898	106
867.949	98
867.999	114
868.05	100
868.101	110
868.151	106
868.202	104
868.253	108
868.303	110
868.354	102
868.405	108
868.455	110
868.506	122
868.556	122
868.607	110
868.658	108
868.708	100
868.759	106
868.81	96
868.86	112
868.911	112
868.961	108
869.012	110
869.063	102
869.113	116
869.164	114
869.215	98
869.265	106
869.316	112
869.367	108
869.417	104
869.468	100
869.518	108
869.569	100
869.62	100
869.67	102
869.721	104
869.771	98
869.822	108
869.873	110
869.923	108
869.974	104
870.025	100
870.075	106
870.126	104
870.176	100
870.227	102
870.278	94
870.328	110
870.379	96
870.43	94
870.48	104
870.531	90
870.581	104
870.632	108
870.683	112
870.733	102
870.784	100
870.834	94
870.885	110
870.936	124
870.986	100
871.037	108
871.087	92
871.138	110
871.189	100
871.239	104
871.29	114
871.34	110
871.391	96
871.442	100
871.492	94
871.543	108
871.593	98
871.644	94
871.695	100
871.745	96
871.796	92
871.846	104
871.897	102
871.948	88
871.998	102
872.049	102
872.099	116
872.15	102
872.201	94
872.251	102
872.302	102
872.352	96
872.403	106
872.453	100
872.504	108
872.555	96
872.605	88
872.656	102
872.706	102
872.757	100
872.808	90
872.858	106
872.909	98
872.959	98
873.01	106
873.06	94
873.111	108
873.162	92
873.212	98
873.263	106
873.313	106
873.364	88
873.415	96
873.465	100
873.516	104
873.566	94
873.617	106
873.667	100
873.718	100
873.769	92
873.819	96
873.87	94
873.92	100
873.971	98
874.021	96
874.072	94
874.123	102
874.173	94
874.224	92
874.274	102
874.325	90
874.375	98
874.426	86
874.477	90
874.527	94
874.578	86
874.628	104
874.679	110
874.729	98
874.78	88
874.83	94
874.881	100
874.932	98
874.982	96
875.033	100
875.083	90
875.134	94
875.184	100
875.235	98
875.285	98
875.336	94
875.387	104
875.437	90
875.488	94
875.538	96
875.589	102
875.639	96
875.69	98
875.74	104
875.791	96
875.841	100
875.892	92
875.943	84
875.993	90
876.044	92
876.094	92
876.145	96
876.195	92
876.246	102
876.296	92
876.347	92
876.397	92
876.448	96
876.499	94
876.549	84
876.6	100
876.65	92
876.701	94
876.751	102
876.802	94
876.852	94
876.903	88
876.953	88
877.004	100
877.054	92
877.105	92
877.155	92
877.206	88
877.257	90
877.307	104
877.358	94
877.408	88
877.459	98
877.509	86
877.56	88
877.61	100
877.661	90
877.711	70
877.762	92
877.812	90
877.863	86
877.913	88
877.964	86
878.014	94
878.065	92
878.115	92
878.166	78
878.216	94
878.267	86
878.318	82
878.368	86
878.419	98
878.469	88
878.52	88
878.57	90
878.621	86
878.671	82
878.722	92
878.772	100
878.823	94
878.873	78
878.924	92
878.974	96
879.025	88
879.075	84
879.126	90
879.176	94
879.227	88
879.277	96
879.328	98
879.378	104
879.429	86
879.479	94
879.53	86
879.58	94
879.631	76
879.681	80
879.732	98
879.782	88
879.833	76
879.883	84
879.934	96
879.984	88
880.035	82
880.085	86
880.136	96
880.186	84
880.237	86
880.287	98
880.338	88
880.388	90
880.439	86
880.489	74
880.54	86
880.59	96
880.641	84
880.691	82
880.742	84
880.792	84
880.842	88
880.893	86
880.943	92
880.994	86
881.044	70
881.095	88
881.145	92
881.196	76
881.246	80
881.297	84
881.347	88
881.398	94
881.448	80
881.499	86
881.549	92
881.6	78
881.65	78
881.701	84
881.751	90
881.802	80
881.852	74
881.902	90
881.953	80
882.003	88
882.054	82
882.104	72
882.155	80
882.205	78
882.256	80
882.306	82
882.357	82
882.407	86
882.458	88
882.508	70
882.559	76
882.609	80
882.659	72
882.71	76
882.76	78
882.811	76
882.861	84
882.912	86
882.962	78
883.013	84
883.063	88
883.114	88
883.164	72
883.214	78
883.265	82
883.315	80
883.366	86
883.416	84
883.467	86
883.517	80
883.568	76
883.618	70
883.669	82
883.719	76
883.769	76
883.82	84
883.87	86
883.921	90
883.971	86
884.022	72
884.072	90
884.123	78
884.173	80
884.223	82
884.274	74
884.324	78
884.375	78
884.425	82
884.476	88
884.526	84
884.577	78
884.627	82
884.677	78
884.728	84
884.778	84
884.829	82
884.879	76
884.93	86
884.98	76
885.03	90
885.081	82
885.131	70
885.182	80
885.232	86
885.283	84
885.333	70
885.383	78
885.434	84
885.484	78
885.535	74
885.585	74
885.635	84
885.686	80
885.736	78
885.787	74
885.837	80
885.888	80
885.938	80
885.988	86
886.039	86
886.089	84
886.14	68
886.19	74
886.241	76
886.291	74
886.341	72
886.392	78
886.442	76
886.493	80
886.543	78
886.593	76
886.644	72
886.694	74
886.745	80
886.795	84
886.845	70
886.896	68
886.946	78
886.997	78
887.047	78
887.097	78
887.148	76
887.198	72
887.249	74
887.299	76
887.349	70
887.4	84
887.45	88
887.501	68
887.551	84
887.602	80
887.652	80
887.702	66
887.753	68
887.803	76
887.853	70
887.904	68
887.954	70
888.005	74
888.055	72
888.105	76
888.156	78
888.206	76
888.257	72
888.307	72
888.357	72
888.408	80
888.458	84
888.509	74
888.559	86
888.609	80
888.66	74
888.71	74
888.76	76
888.811	78
888.861	76
888.912	78
888.962	84
889.012	66
889.063	64
889.113	62
889.163	70
889.214	76
889.264	76
889.315	74
889.365	76
889.415	70
889.466	68
889.516	70
889.566	72
889.617	74
889.667	68
889.718	82
889.768	78
889.818	70
889.869	76
889.919	70
889.969	64
890.02	70
890.07	74
890.12	72
890.171	74
890.221	76
890.272	66
890.322	70
890.372	70
890.423	72
890.473	58
890.523	70
890.574	66
890.624	76
890.674	76
890.725	78
890.775	78
890.826	56
890.876	70
890.926	84
890.977	78
891.027	70
891.077	70
891.128	62
891.178	70
891.228	60
891.279	68
891.329	64
891.379	80
891.43	76
891.48	70
891.53	72
891.581	76
891.631	68
891.681	64
891.732	82
891.782	76
891.832	66
891.883	82
891.933	64
891.983	70
892.034	72
892.084	74
892.134	68
892.185	68
892.235	68
892.286	70
892.336	66
892.386	72
892.437	66
892.487	74
892.537	70
892.587	60
892.638	70
892.688	70
892.738	70
892.789	64
892.839	64
892.889	60
892.94	68
892.99	70
893.04	64
893.091	70
893.141	66
893.191	62
893.242	48
893.292	66
893.342	58
893.393	66
893.443	76
893.493	70
893.544	64
893.594	64
893.644	62
893.695	68
893.745	64
893.795	60
893.846	76
893.896	66
893.946	68
893.996	66
894.047	62
894.097	74
894.147	56
894.198	64
894.248	70
894.298	70
894.349	68
894.399	56
894.449	72
894.5	64
894.55	66
894.6	64
894.65	72
894.701	64
894.751	66
894.801	58
894.852	72
894.902	66
894.952	62
895.003	58
895.053	66
895.103	62
895.153	54
895.204	60
895.254	70
895.304	66
895.355	62
895.405	72
895.455	64
895.505	64
895.556	58
895.606	70
895.656	62
895.707	64
895.757	56
895.807	64
895.858	58
895.908	68
895.958	62
896.008	68
896.059	66
896.109	56
896.159	60
896.21	64
896.26	66
896.31	64
896.36	60
896.411	68
896.461	66
896.511	66
896.561	64
896.612	66
896.662	64
896.712	60
896.763	60
896.813	50
896.863	56
896.913	64
896.964	66
897.014	66
897.064	62
897.115	58
897.165	54
897.215	68
897.265	62
897.316	64
897.366	56
897.416	66
897.466	68
897.517	58
897.567	58
897.617	62
897.667	64
897.718	62
897.768	64
897.818	60
897.868	66
897.919	50
897.969	64
898.019	62
898.069	70
898.12	56
898.17	70
898.22	66
898.27	58
898.321	56
898.371	66
898.421	70
898.471	68
898.522	58
898.572	64
898.622	68
898.672	58
898.723	58
898.773	54
898.823	62
898.873	56
898.924	44
898.974	52
899.024	68
899.074	52
899.125	56
899.175	60
899.225	64
899.275	56
899.326	58
899.376	62
899.426	56
899.476	46
899.527	54
899.577	66
899.627	56
899.677	60
899.728	60
899.778	62
899.828	68
899.878	48
899.928	56
899.979	64
