#Acq. time (s)=	5
#Accumulations=	2
#Range (nm)=	520...900
#Windows=	8
#Auto scanning=	Off
#Autofocus=	Off
#AutoExposure=	Off
#Spike filter=	Multiple accum.
#Delay time (s)=	0
#Binning=	1
#Readout mode=	Signal
#DeNoise=	Off
#ICS correction=	Off
#Dark correction=	Off
#Inst. Process=	Off
#Detector temperature (°C)=	-59.98
#Instrument=	LabRAM HR Evol
#Detector=	Syncerity OE
#Objective=	x50_VIS
#Grating=	600 (500nm)
#ND Filter=	10%
#Laser=	514nm_Edge
#Hole=	199.981
#Range=	Auto
#StageXY=	Marzhauser
#StageZ=	Marzhauser
#X (µm)=	-10802.4
#Y (µm)=	12273.3
#Z (µm)=	-163.4
#Full time(mm:ss)=	2:04
#Project=	
#Sample=	
#Site=	
#Title=	MS_091025
#Remark=	
#Date=	13.10.2023 16:39
#Acquired=	13.10.2023 16:39:12
520.044	28
520.097	34
520.149	32
520.201	40
520.254	38
520.306	30
520.359	32
520.411	32
520.464	38
520.516	34
520.569	42
520.621	28
520.674	40
520.726	34
520.778	40
520.831	32
520.883	30
520.936	36
520.988	52
521.041	32
521.093	36
521.146	38
521.198	32
521.25	26
521.303	32
521.355	36
521.408	42
521.46	34
521.513	36
521.565	38
521.617	42
521.67	34
521.722	42
521.775	28
521.827	36
521.88	28
521.932	36
521.984	38
522.037	32
522.089	38
522.142	32
522.194	32
522.247	28
522.299	38
522.352	26
522.404	44
522.456	38
522.509	42
522.561	26
522.614	32
522.666	34
522.719	46
522.771	28
522.823	38
522.876	34
522.928	40
522.981	26
523.033	40
523.086	28
523.138	36
523.19	34
523.243	40
523.295	30
523.348	36
523.4	36
523.453	32
523.505	38
523.557	34
523.61	34
523.662	36
523.715	30
523.767	34
523.82	38
523.872	42
523.924	40
523.977	36
524.029	36
524.082	30
524.134	36
524.186	40
524.239	46
524.291	44
524.344	34
524.396	30
524.449	38
524.501	36
524.553	42
524.606	36
524.658	44
524.711	32
524.763	34
524.815	40
524.868	36
524.92	32
524.973	38
525.025	42
525.078	40
525.13	40
525.182	38
525.235	30
525.287	46
525.34	30
525.392	40
525.444	36
525.497	44
525.549	38
525.602	38
525.654	44
525.706	36
525.759	46
525.811	40
525.864	34
525.916	36
525.969	30
526.021	32
526.073	38
526.126	42
526.178	40
526.231	28
526.283	40
526.335	46
526.388	42
526.44	38
526.493	40
526.545	36
526.597	38
526.65	26
526.702	46
526.755	36
526.807	40
526.859	32
526.912	46
526.964	42
527.017	40
527.069	40
527.121	48
527.174	40
527.226	36
527.279	44
527.331	44
527.383	36
527.436	38
527.488	42
527.54	44
527.593	34
527.645	42
527.698	38
527.75	48
527.802	42
527.855	38
527.907	46
527.96	38
528.012	36
528.064	36
528.117	40
528.169	42
528.222	36
528.274	38
528.326	44
528.379	38
528.431	36
528.484	40
528.536	42
528.588	36
528.641	34
528.693	40
528.745	46
528.798	50
528.85	36
528.903	34
528.955	42
529.007	46
529.06	42
529.112	40
529.164	48
529.217	36
529.269	34
529.322	38
529.374	50
529.426	36
529.479	40
529.531	38
529.584	42
529.636	34
529.688	46
529.741	48
529.793	42
529.845	34
529.898	44
529.95	48
530.003	44
530.055	38
530.107	44
530.16	46
530.212	36
530.264	36
530.317	42
530.369	48
530.422	44
530.474	36
530.526	38
530.579	44
530.631	42
530.683	36
530.736	38
530.788	46
530.841	44
530.893	44
530.945	38
530.998	48
531.05	50
531.102	46
531.155	42
531.207	48
531.259	38
531.312	40
531.364	46
531.417	48
531.469	42
531.521	44
531.574	48
531.626	38
531.678	44
531.731	40
531.783	46
531.835	44
531.888	34
531.94	32
531.992	42
532.045	42
532.097	48
532.15	38
532.202	42
532.254	50
532.307	46
532.359	38
532.411	48
532.464	44
532.516	54
532.568	40
532.621	50
532.673	46
532.726	42
532.778	48
532.83	54
532.883	40
532.935	52
532.987	44
533.04	52
533.092	44
533.144	50
533.197	50
533.249	52
533.301	42
533.354	44
533.406	48
533.458	46
533.511	44
533.563	42
533.615	40
533.668	56
533.72	36
533.773	48
533.825	48
533.877	48
533.93	42
533.982	42
534.034	50
534.087	46
534.139	46
534.191	42
534.244	52
534.296	44
534.348	44
534.401	44
534.453	46
534.505	48
534.558	40
534.61	40
534.662	50
534.715	42
534.767	44
534.819	54
534.872	54
534.924	50
534.976	50
535.029	46
535.081	58
535.133	46
535.186	48
535.238	52
535.29	52
535.343	58
535.395	56
535.447	52
535.5	60
535.552	38
535.604	50
535.657	54
535.709	52
535.761	52
535.814	60
535.866	44
535.918	52
535.971	42
536.023	52
536.075	44
536.128	54
536.18	50
536.232	44
536.285	52
536.337	54
536.389	44
536.442	50
536.494	56
536.546	50
536.599	46
536.651	46
536.703	50
536.755	50
536.808	48
536.86	46
536.912	58
536.965	54
537.017	52
537.069	52
537.122	44
537.174	46
537.226	54
537.279	58
537.331	62
537.383	58
537.436	56
537.488	48
537.54	52
537.593	50
537.645	54
537.697	50
537.75	58
537.802	52
537.854	48
537.906	60
537.959	56
538.011	50
538.063	58
538.116	50
538.168	62
538.22	52
538.273	50
538.325	60
538.377	50
538.43	50
538.482	50
538.534	48
538.586	62
538.639	52
538.691	52
538.743	66
538.796	50
538.848	54
538.9	54
538.953	56
539.005	46
539.057	52
539.109	50
539.162	64
539.214	40
539.266	58
539.319	56
539.371	52
539.423	54
539.476	58
539.528	64
539.58	56
539.633	48
539.685	52
539.737	56
539.789	58
539.842	54
539.894	62
539.946	56
539.999	54
540.051	50
540.103	56
540.155	60
540.208	54
540.26	58
540.312	54
540.365	60
540.417	64
540.469	56
540.521	54
540.574	66
540.626	56
540.678	56
540.731	54
540.783	56
540.835	58
540.888	58
540.94	56
540.992	62
541.044	58
541.097	64
541.149	60
541.201	64
541.254	68
541.306	56
541.358	60
541.41	58
541.463	58
541.515	62
541.567	60
541.62	68
541.672	60
541.724	62
541.776	68
541.829	74
541.881	64
541.933	66
541.985	54
542.038	70
542.09	62
542.142	58
542.195	66
542.247	64
542.299	66
542.351	62
542.404	64
542.456	76
542.508	64
542.56	64
542.613	64
542.665	64
542.717	64
542.77	50
542.822	70
542.874	70
542.926	62
542.979	52
543.031	70
543.083	72
543.135	68
543.188	72
543.24	70
543.292	70
543.344	64
543.397	70
543.449	68
543.501	64
543.554	66
543.606	72
543.658	86
543.71	74
543.763	74
543.815	74
543.867	72
543.919	72
543.972	74
544.024	70
544.076	68
544.128	72
544.181	64
544.233	72
544.285	74
544.337	72
544.39	78
544.442	74
544.494	64
544.547	72
544.599	76
544.651	82
544.703	70
544.755	78
544.808	74
544.86	78
544.912	78
544.965	80
545.017	68
545.069	76
545.121	72
545.174	74
545.226	76
545.278	76
545.33	72
545.383	82
545.435	76
545.487	82
545.539	84
545.591	78
545.644	74
545.696	68
545.748	62
545.8	80
545.853	86
545.905	86
545.957	84
546.009	80
546.062	86
546.114	86
546.166	76
546.218	76
546.271	76
546.323	92
546.375	84
546.427	80
546.48	88
546.532	90
546.584	88
546.636	88
546.689	92
546.741	92
546.793	86
546.845	78
546.898	90
546.95	84
547.002	88
547.054	90
547.106	86
547.159	94
547.211	92
547.263	108
547.315	92
547.368	98
547.42	88
547.472	76
547.524	94
547.577	84
547.629	90
547.681	100
547.733	100
547.785	94
547.838	102
547.89	94
547.942	106
547.994	90
548.047	78
548.099	104
548.151	88
548.203	98
548.255	98
548.308	92
548.36	104
548.412	96
548.464	98
548.517	108
548.569	118
548.621	102
548.673	110
548.725	110
548.778	98
548.83	96
548.882	108
548.934	106
548.987	112
549.039	108
549.091	94
549.143	108
549.195	120
549.248	108
549.3	100
549.352	106
549.404	100
549.456	110
549.509	104
549.561	112
549.613	104
549.665	114
549.718	112
549.77	98
549.822	120
549.874	110
549.926	110
549.979	122
550.031	110
550.083	94
550.135	108
550.187	122
550.24	116
550.292	120
550.344	114
550.396	126
550.448	112
550.501	120
550.553	128
550.605	130
550.657	114
550.709	124
550.762	120
550.814	120
550.866	120
550.918	130
550.97	134
551.023	138
551.075	146
551.127	146
551.179	142
551.231	138
551.284	144
551.336	156
551.388	158
551.44	138
551.492	154
551.545	146
551.597	184
551.649	150
551.701	160
551.753	176
551.806	190
551.858	202
551.91	214
551.962	234
552.014	254
552.067	250
552.119	328
552.171	380
552.223	584
552.275	1068
552.327	2256
552.38	4272
552.432	7930
552.484	14428
552.536	16366
552.588	9382
552.641	4372
552.693	1560
552.745	718
552.797	478
552.849	372
552.901	306
552.954	264
553.006	242
553.058	220
553.11	202
553.162	186
553.215	198
553.267	190
553.319	172
553.371	158
553.423	168
553.475	164
553.528	172
553.58	166
553.632	162
553.684	158
553.736	168
553.788	160
553.841	168
553.893	162
553.945	158
553.997	162
554.049	158
554.102	150
554.154	144
554.206	150
554.258	158
554.31	158
554.362	138
554.414	150
554.467	154
554.519	158
554.571	144
554.623	154
554.675	156
554.727	156
554.78	154
554.832	160
554.884	166
554.936	148
554.988	158
555.04	168
555.093	170
555.145	168
555.197	156
555.249	162
555.301	168
555.353	166
555.406	152
555.458	170
555.51	156
555.562	174
555.614	166
555.666	182
555.719	162
555.771	168
555.823	178
555.875	174
555.927	162
555.979	164
556.031	168
556.084	168
556.136	162
556.188	156
556.24	182
556.292	170
556.344	172
556.396	166
556.449	184
556.501	172
556.553	178
556.605	190
556.657	194
556.709	170
556.762	180
556.814	178
556.866	174
556.918	168
556.97	180
557.022	174
557.074	174
557.127	178
557.179	186
557.231	182
557.283	190
557.335	184
557.387	194
557.439	186
557.492	194
557.544	180
557.596	194
557.648	192
557.7	204
557.752	196
557.804	202
557.856	202
557.909	194
557.961	192
558.013	200
558.065	202
558.117	216
558.169	192
558.221	196
558.273	194
558.326	206
558.378	198
558.43	214
558.482	204
558.534	200
558.586	198
558.638	210
558.691	204
558.743	214
558.795	200
558.847	196
558.899	218
558.951	194
559.003	184
559.055	214
559.108	210
559.16	198
559.212	192
559.264	202
559.316	218
559.368	208
559.42	212
559.472	210
559.525	196
559.577	208
559.629	218
559.681	214
559.733	226
559.785	226
559.837	220
559.889	208
559.941	192
559.994	218
560.046	212
560.098	206
560.15	218
560.202	206
560.254	230
560.306	222
560.358	228
560.41	226
560.463	208
560.515	236
560.567	228
560.619	232
560.671	226
560.723	234
560.775	226
560.827	226
560.879	246
560.932	242
560.984	242
561.036	248
561.088	238
561.14	236
561.192	242
561.244	228
561.296	222
561.348	244
561.4	232
561.453	244
561.505	250
561.557	236
561.609	262
561.661	248
561.713	252
561.765	264
561.817	246
561.869	254
561.921	262
561.974	262
562.026	252
562.078	260
562.13	268
562.182	264
562.234	270
562.286	268
562.338	268
562.39	258
562.442	268
562.494	260
562.547	284
562.599	262
562.651	286
562.703	274
562.755	260
562.807	254
562.859	270
562.911	266
562.963	284
563.015	286
563.067	278
563.12	270
563.172	290
563.224	280
563.276	278
563.328	272
563.38	286
563.432	290
563.484	284
563.536	270
563.588	304
563.64	290
563.692	284
563.744	280
563.797	294
563.849	296
563.901	282
563.953	296
564.005	314
564.057	308
564.109	286
564.161	304
564.213	298
564.265	304
564.317	302
564.369	304
564.421	306
564.474	312
564.526	280
564.578	306
564.63	312
564.682	302
564.734	298
564.786	296
564.838	324
564.89	292
564.942	300
564.994	342
565.046	310
565.098	318
565.15	324
565.202	304
565.255	330
565.307	318
565.359	326
565.411	346
565.463	322
565.515	324
565.567	322
565.619	336
565.671	346
565.723	322
565.775	352
565.827	340
565.879	332
565.931	320
565.983	338
566.035	346
566.087	340
566.139	324
566.192	334
566.244	340
566.296	342
566.348	336
566.4	360
566.452	370
566.504	352
566.556	364
566.608	350
566.66	376
566.712	348
566.764	364
566.816	352
566.868	380
566.92	332
566.972	344
567.024	364
567.076	364
567.128	342
567.18	360
567.232	386
567.285	374
567.337	370
567.389	372
567.441	390
567.493	374
567.545	382
567.597	384
567.649	370
567.701	374
567.753	366
567.805	378
567.857	384
567.909	374
567.961	376
568.013	402
568.065	388
568.117	390.09
568.169	380.42
568.221	386.284
568.273	405.37
568.325	391.053
568.377	376.758
568.429	398.159
568.481	384.244
568.533	395.62
568.585	397.517
568.637	408.522
568.69	423.199
568.742	410.255
568.794	401.875
568.846	393.816
568.898	422.784
568.95	413.962
569.002	410.002
569.054	430.102
569.106	423.307
569.158	419.208
569.21	430.489
569.262	430.622
569.314	432.434
569.366	424.432
569.418	429.479
569.47	428.278
569.522	437.569
569.574	431.837
569.626	445.544
569.678	439.348
569.73	446.114
569.782	439.221
569.834	451.202
569.886	438.057
569.938	447.639
569.99	465.62
570.042	464.367
570.094	479.087
570.146	479.956
570.198	465.675
570.25	478.508
570.302	472.643
570.354	465.809
570.406	462.571
570.458	478.13
570.51	490.207
570.562	502.175
570.614	499.799
570.666	505.262
570.718	508.693
570.77	507.274
570.822	510.948
570.874	512.81
570.926	532.341
570.978	520.261
571.03	522.701
571.082	525.586
571.134	524.613
571.186	544.778
571.238	538.723
571.29	547.743
571.342	556.156
571.394	553.429
571.446	563.28
571.498	560.619
571.55	582.791
571.602	580.197
571.654	591.478
571.706	588.187
571.758	585.514
571.81	590.28
571.862	604.983
571.914	613.449
571.966	591.804
572.018	627.084
572.07	630.151
572.122	643.366
572.174	653.864
572.226	658.625
572.278	649.686
572.33	656.755
572.382	650.95
572.434	679.882
572.486	695.732
572.538	697.148
572.59	690.716
572.642	734.588
572.694	708.587
572.746	735.477
572.798	730.761
572.85	730.694
572.902	774.23
572.954	763.848
573.006	771.831
573.058	770.045
573.11	783.963
573.162	771.363
573.214	815.023
573.266	811.213
573.312	834
573.364	848
573.416	854
573.469	854
573.521	882
573.573	866
573.625	854
573.677	922
573.73	952
573.782	908
573.834	960
573.886	960
573.938	984
573.991	968
574.043	988
574.095	1040
574.147	1030
574.199	1050
574.252	1050
574.304	1068
574.356	1084
574.408	1116
574.46	1116
574.513	1118
574.565	1156
574.617	1176
574.669	1164
574.721	1124
574.774	1216
574.826	1216
574.878	1242
574.93	1268
574.982	1258
575.035	1298
575.087	1336
575.139	1334
575.191	1344
575.243	1328
575.296	1376
575.348	1372
575.4	1362
575.452	1378
575.504	1430
575.556	1398
575.609	1412
575.661	1404
575.713	1436
575.765	1428
575.817	1398
575.87	1448
575.922	1464
575.974	1442
576.026	1440
576.078	1442
576.131	1400
576.183	1418
576.235	1434
576.287	1394
576.339	1424
576.391	1446
576.444	1396
576.496	1394
576.548	1382
576.6	1378
576.652	1378
576.705	1358
576.757	1348
576.809	1366
576.861	1314
576.913	1356
576.965	1328
577.018	1274
577.07	1244
577.122	1268
577.174	1256
577.226	1226
577.279	1258
577.331	1184
577.383	1190
577.435	1200
577.487	1210
577.539	1212
577.592	1170
577.644	1156
577.696	1140
577.748	1148
577.8	1144
577.852	1128
577.905	1124
577.957	1120
578.009	1136
578.061	1076
578.113	1124
578.165	1042
578.218	1078
578.27	1054
578.322	1064
578.374	1052
578.426	1012
578.478	1014
578.531	1036
578.583	1038
578.635	1004
578.687	1034
578.739	1030
578.791	1008
578.844	972
578.896	972
578.948	1018
579	982
579.052	1002
579.104	974
579.157	974
579.209	988
579.261	964
579.313	962
579.365	1012
579.417	940
579.47	948
579.522	994
579.574	980
579.626	972
579.678	958
579.73	960
579.782	962
579.835	966
579.887	936
579.939	986
579.991	944
580.043	954
580.095	942
580.148	958
580.2	976
580.252	932
580.304	978
580.356	968
580.408	954
580.46	986
580.513	972
580.565	960
580.617	952
580.669	960
580.721	994
580.773	952
580.826	940
580.878	970
580.93	970
580.982	978
581.034	984
581.086	976
581.138	988
581.191	962
581.243	974
581.295	1008
581.347	960
581.399	988
581.451	968
581.503	984
581.556	990
581.608	958
581.66	982
581.712	970
581.764	970
581.816	992
581.868	970
581.92	970
581.973	1036
582.025	1026
582.077	1030
582.129	980
582.181	1020
582.233	1022
582.285	980
582.338	1026
582.39	1028
582.442	990
582.494	1010
582.546	1026
582.598	1032
582.65	1020
582.703	1040
582.755	1028
582.807	1040
582.859	1012
582.911	1034
582.963	1032
583.015	1024
583.067	1054
583.12	1056
583.172	1032
583.224	1010
583.276	1048
583.328	1078
583.38	1072
583.432	1072
583.484	1096
583.537	1026
583.589	1056
583.641	1066
583.693	1062
583.745	1060
583.797	1094
583.849	1064
583.901	1092
583.953	1082
584.006	1120
584.058	1144
584.11	1092
584.162	1082
584.214	1092
584.266	1108
584.318	1146
584.37	1112
584.423	1136
584.475	1134
584.527	1152
584.579	1148
584.631	1142
584.683	1158
584.735	1122
584.787	1132
584.839	1152
584.892	1144
584.944	1208
584.996	1164
585.048	1178
585.1	1184
585.152	1204
585.204	1210
585.256	1218
585.308	1168
585.361	1222
585.413	1252
585.465	1210
585.517	1240
585.569	1232
585.621	1200
585.673	1218
585.725	1236
585.777	1212
585.83	1228
585.882	1216
585.934	1242
585.986	1254
586.038	1292
586.09	1252
586.142	1244
586.194	1274
586.246	1254
586.298	1248
586.351	1236
586.403	1284
586.455	1286
586.507	1258
586.559	1292
586.611	1274
586.663	1314
586.715	1262
586.767	1274
586.819	1248
586.872	1284
586.924	1310
586.976	1292
587.028	1274
587.08	1344
587.132	1296
587.184	1314
587.236	1296
587.288	1300
587.34	1344
587.392	1308
587.445	1334
587.497	1318
587.549	1314
587.601	1314
587.653	1342
587.705	1344
587.757	1330
587.809	1336
587.861	1328
587.913	1320
587.965	1278
588.018	1344
588.07	1306
588.122	1334
588.174	1366
588.226	1346
588.278	1338
588.33	1330
588.382	1316
588.434	1368
588.486	1344
588.538	1298
588.59	1324
588.642	1370
588.695	1350
588.747	1384
588.799	1382
588.851	1350
588.903	1394
588.955	1370
589.007	1372
589.059	1388
589.111	1410
589.163	1352
589.215	1350
589.267	1434
589.319	1390
589.372	1376
589.424	1396
589.476	1348
589.528	1396
589.58	1368
589.632	1378
589.684	1372
589.736	1404
589.788	1364
589.84	1370
589.892	1344
589.944	1392
589.996	1370
590.048	1372
590.101	1378
590.153	1366
590.205	1392
590.257	1382
590.309	1360
590.361	1356
590.413	1406
590.465	1358
590.517	1396
590.569	1414
590.621	1352
590.673	1330
590.725	1398
590.777	1392
590.829	1378
590.881	1366
590.933	1356
590.986	1366
591.038	1388
591.09	1376
591.142	1350
591.194	1356
591.246	1358
591.298	1382
591.35	1380
591.402	1410
591.454	1394
591.506	1364
591.558	1324
591.61	1388
591.662	1340
591.714	1350
591.766	1354
591.818	1372
591.87	1342
591.923	1372
591.975	1314
592.027	1360
592.079	1326
592.131	1350
592.183	1344
592.235	1352
592.287	1352
592.339	1378
592.391	1356
592.443	1378
592.495	1352
592.547	1372
592.599	1344
592.651	1362
592.703	1368
592.755	1348
592.807	1356
592.859	1362
592.911	1348
592.963	1376
593.015	1352
593.068	1346
593.12	1356
593.172	1340
593.224	1324
593.276	1392
593.328	1354
593.38	1386
593.432	1350
593.484	1398
593.536	1376
593.588	1396
593.64	1378
593.692	1388
593.744	1374
593.796	1352
593.848	1392
593.9	1378
593.952	1378
594.004	1370
594.056	1390
594.108	1388
594.16	1368
594.212	1382
594.264	1396
594.316	1404
594.368	1392
594.42	1416
594.472	1390
594.524	1382
594.576	1404
594.628	1412
594.68	1408
594.732	1414
594.784	1420
594.837	1426
594.889	1438
594.941	1406
594.993	1442
595.045	1340
595.097	1416
595.149	1414
595.201	1430
595.253	1426
595.305	1424
595.357	1448
595.409	1430
595.461	1432
595.513	1446
595.565	1438
595.617	1450
595.669	1484
595.721	1448
595.773	1470
595.825	1456
595.877	1448
595.929	1442
595.981	1490
596.033	1444
596.085	1534
596.137	1494
596.189	1494
596.241	1512
596.293	1484
596.345	1494
596.397	1490
596.449	1486
596.501	1548
596.553	1522
596.605	1514
596.657	1508
596.709	1490
596.761	1514
596.813	1504
596.865	1528
596.917	1524
596.969	1530
597.021	1540
597.073	1514
597.125	1532
597.177	1540
597.229	1504
597.281	1530
597.333	1558
597.385	1518
597.437	1532
597.489	1544
597.541	1538
597.593	1604
597.645	1532
597.697	1542
597.749	1570
597.801	1550
597.853	1580
597.905	1566
597.957	1590
598.009	1560
598.061	1584
598.113	1560
598.165	1540
598.217	1604
598.269	1610
598.321	1554
598.373	1538
598.425	1616
598.477	1562
598.529	1592
598.581	1612
598.633	1578
598.685	1582
598.737	1608
598.789	1558
598.841	1590
598.893	1594
598.945	1612
598.997	1576
599.049	1608
599.101	1554
599.153	1604
599.205	1574
599.257	1606
599.309	1594
599.361	1576
599.413	1540
599.465	1574
599.517	1586
599.569	1618
599.62	1610
599.672	1544
599.724	1548
599.776	1610
599.828	1642
599.88	1608
599.932	1636
599.984	1566
600.036	1596
600.088	1530
600.14	1572
600.192	1580
600.244	1602
600.296	1592
600.348	1614
600.4	1576
600.452	1564
600.504	1608
600.556	1616
600.608	1584
600.66	1586
600.712	1588
600.764	1612
600.816	1574
600.868	1640
600.92	1586
600.972	1624
601.024	1606
601.076	1562
601.128	1608
601.18	1602
601.232	1600
601.284	1590
601.335	1582
601.387	1574
601.439	1578
601.491	1640
601.543	1582
601.595	1590
601.647	1608
601.699	1628
601.751	1616
601.803	1616
601.855	1618
601.907	1636
601.959	1606
602.011	1624
602.063	1624
602.115	1600
602.167	1634
602.219	1590
602.271	1606
602.323	1562
602.375	1604
602.427	1586
602.478	1646
602.53	1572
602.582	1610
602.634	1598
602.686	1576
602.738	1612
602.79	1646
602.842	1666
602.894	1624
602.946	1616
602.998	1610
603.05	1622
603.102	1602
603.154	1646
603.206	1666
603.258	1658
603.31	1660
603.362	1666
603.413	1666
603.465	1652
603.517	1610
603.569	1614
603.621	1636
603.673	1632
603.725	1622
603.777	1638
603.829	1694
603.881	1678
603.933	1664
603.985	1666
604.037	1614
604.089	1666
604.141	1662
604.193	1658
604.244	1674
604.296	1674
604.348	1662
604.4	1676
604.452	1664
604.504	1694
604.556	1678
604.608	1706
604.66	1688
604.712	1664
604.764	1680
604.816	1680
604.868	1680
604.92	1630
604.971	1700
605.023	1700
605.075	1710
605.127	1680
605.179	1694
605.231	1680
605.283	1672
605.335	1704
605.387	1658
605.439	1704
605.491	1660
605.543	1690
605.594	1674
605.646	1658
605.698	1638
605.75	1658
605.802	1696
605.854	1652
605.906	1670
605.958	1662
606.01	1634
606.062	1702
606.114	1642
606.166	1694
606.217	1680
606.269	1686
606.321	1684
606.373	1700
606.425	1672
606.477	1688
606.529	1686
606.581	1712
606.633	1694
606.685	1702
606.737	1702
606.789	1662
606.84	1684
606.892	1688
606.944	1674
606.996	1686
607.048	1650
607.1	1660
607.152	1712
607.204	1696
607.256	1686
607.308	1680
607.359	1728
607.411	1696
607.463	1712
607.515	1662
607.567	1728
607.619	1690
607.671	1662
607.723	1714
607.775	1682
607.827	1722
607.878	1740
607.93	1726
607.982	1690
608.034	1738
608.086	1700
608.138	1726
608.19	1708
608.242	1738
608.294	1702
608.345	1722
608.397	1704
608.449	1720
608.501	1724
608.553	1722
608.605	1762
608.657	1694
608.709	1730
608.761	1728
608.812	1740
608.864	1778
608.916	1742
608.968	1704
609.02	1732
609.072	1780
609.124	1746
609.176	1770
609.228	1736
609.279	1752
609.331	1744
609.383	1762
609.435	1782
609.487	1764
609.539	1780
609.591	1798
609.643	1790
609.694	1824
609.746	1778
609.798	1734
609.85	1824
609.902	1830
609.954	1814
610.006	1844
610.058	1796
610.109	1842
610.161	1756
610.213	1802
610.265	1836
610.317	1826
610.369	1744
610.421	1802
610.473	1778
610.524	1822
610.576	1842
610.628	1802
610.68	1836
610.732	1850
610.784	1796
610.836	1812
610.887	1852
610.939	1806
610.991	1826
611.043	1882
611.095	1850
611.147	1782
611.199	1822
611.25	1808
611.302	1836
611.354	1832
611.406	1832
611.458	1824
611.51	1856
611.562	1860
611.614	1844
611.665	1824
611.717	1788
611.769	1874
611.821	1818
611.873	1832
611.925	1872
611.977	1884
612.028	1842
612.08	1890
612.132	1868
612.184	1846
612.236	1862
612.288	1882
612.339	1872
612.391	1876
612.443	1892
612.495	1844
612.547	1854
612.599	1908
612.651	1934
612.702	1890
612.754	1932
612.806	1906
612.858	1914
612.91	1946
612.962	1878
613.013	1922
613.065	1870
613.117	1918
613.169	1900
613.221	1928
613.273	1918
613.325	1958
613.376	1930
613.428	1948
613.48	1948
613.532	1904
613.584	1926
613.635	1960
613.687	1946
613.739	1936
613.791	1964
613.843	1948
613.895	1924
613.947	1978
613.998	1966
614.05	1932
614.102	1962
614.154	1940
614.206	1964
614.258	1986
614.309	1982
614.361	2006
614.413	1998
614.465	2004
614.517	2028
614.568	1982
614.62	1970
614.672	2058
614.724	2026
614.776	2036
614.828	2038
614.879	2022
614.931	2020
614.983	2036
615.035	1960
615.087	2042
615.139	2086
615.19	2022
615.242	2048
615.294	2032
615.346	1988
615.398	2014
615.449	2042
615.501	2086
615.553	2030
615.605	2064
615.657	2036
615.709	2108
615.76	2086
615.812	2072
615.864	2076
615.916	2074
615.968	2086
616.019	2049.96
616.071	2065.92
616.123	2128.55
616.175	2107.63
616.227	2075.44
616.278	2101.29
616.33	2103.02
616.382	2108.92
616.434	2124.27
616.486	2096.68
616.537	2050.42
616.589	2125.06
616.641	2117.97
616.693	2102.96
616.745	2138.33
616.797	2147.72
616.848	2086.06
616.9	2108.29
616.952	2130.04
617.004	2091.4
617.056	2134.74
617.107	2151.26
617.159	2153.42
617.211	2151.48
617.263	2131.99
617.315	2127
617.366	2154.74
617.418	2155.46
617.47	2138.34
617.522	2137.51
617.573	2179.55
617.625	2161.18
617.677	2179.11
617.729	2183.06
617.781	2180.43
617.832	2148.49
617.884	2168.12
617.936	2158.1
617.988	2166.15
618.04	2157.5
618.091	2172.64
618.143	2198.25
618.195	2204.01
618.247	2187.02
618.299	2187.75
618.35	2195.85
618.402	2204.08
618.454	2198.03
618.506	2197.28
618.557	2204.12
618.609	2181.31
618.661	2208.3
618.713	2218.87
618.765	2215.08
618.816	2189.68
618.868	2214.91
618.92	2218.93
618.972	2245.1
619.023	2212.14
619.075	2232.97
619.127	2228.72
619.179	2268.08
619.231	2219.19
619.282	2207.99
619.334	2237.46
619.386	2252.45
619.438	2259.94
619.49	2224.44
619.541	2247.35
619.593	2259.54
619.645	2240.84
619.697	2252.55
619.748	2279.08
619.8	2271.97
619.852	2246.65
619.904	2243.02
619.955	2265.53
620.007	2293.14
620.059	2269.91
620.111	2260.97
620.162	2277.57
620.214	2284.71
620.266	2274.58
620.318	2269.29
620.37	2297.57
620.421	2250.61
620.473	2275.53
620.525	2292.57
620.577	2262.99
620.628	2268.68
620.68	2308.06
620.732	2302.58
620.784	2260.93
620.835	2275.99
620.887	2257.09
620.939	2284.95
620.991	2278.48
621.042	2318.01
621.094	2291.59
621.146	2283.1
621.198	2288.93
621.249	2259.97
621.269	2246
621.321	2268
621.373	2320
621.425	2272
621.477	2290
621.529	2304
621.581	2278
621.633	2328
621.685	2324
621.737	2266
621.789	2290
621.841	2312
621.893	2330
621.945	2288
621.997	2314
622.049	2314
622.101	2328
622.153	2354
622.205	2350
622.257	2312
622.309	2326
622.361	2330
622.413	2294
622.465	2290
622.517	2316
622.569	2384
622.621	2284
622.673	2328
622.725	2294
622.776	2334
622.828	2338
622.88	2326
622.932	2342
622.984	2350
623.036	2322
623.088	2356
623.14	2370
623.192	2316
623.244	2344
623.296	2376
623.348	2352
623.4	2374
623.452	2386
623.504	2414
623.556	2358
623.608	2352
623.66	2362
623.712	2386
623.764	2380
623.816	2310
623.868	2382
623.92	2388
623.972	2384
624.024	2308
624.076	2396
624.128	2404
624.18	2408
624.232	2418
624.284	2404
624.336	2378
624.388	2362
624.44	2390
624.492	2408
624.544	2376
624.596	2428
624.648	2406
624.699	2402
624.751	2426
624.803	2438
624.855	2396
624.907	2414
624.959	2410
625.011	2428
625.063	2432
625.115	2350
625.167	2450
625.219	2450
625.271	2410
625.323	2422
625.375	2422
625.427	2396
625.479	2430
625.531	2458
625.583	2450
625.635	2412
625.687	2502
625.739	2442
625.791	2494
625.843	2488
625.895	2424
625.946	2494
625.998	2454
626.05	2468
626.102	2466
626.154	2482
626.206	2488
626.258	2450
626.31	2466
626.362	2484
626.414	2462
626.466	2442
626.518	2466
626.57	2470
626.622	2440
626.674	2464
626.726	2468
626.778	2430
626.83	2474
626.882	2524
626.934	2484
626.985	2486
627.037	2434
627.089	2464
627.141	2540
627.193	2504
627.245	2530
627.297	2536
627.349	2498
627.401	2506
627.453	2502
627.505	2478
627.557	2530
627.609	2564
627.661	2564
627.713	2538
627.765	2488
627.817	2564
627.868	2556
627.92	2528
627.972	2566
628.024	2546
628.076	2566
628.128	2566
628.18	2532
628.232	2570
628.284	2552
628.336	2594
628.388	2508
628.44	2528
628.492	2580
628.544	2554
628.596	2594
628.647	2604
628.699	2570
628.751	2548
628.803	2576
628.855	2656
628.907	2620
628.959	2556
629.011	2658
629.063	2586
629.115	2624
629.167	2596
629.219	2580
629.271	2638
629.322	2626
629.374	2594
629.426	2546
629.478	2610
629.53	2628
629.582	2646
629.634	2574
629.686	2634
629.738	2622
629.79	2614
629.842	2662
629.894	2664
629.945	2658
629.997	2602
630.049	2630
630.101	2704
630.153	2632
630.205	2638
630.257	2718
630.309	2644
630.361	2722
630.413	2670
630.465	2714
630.517	2684
630.568	2650
630.62	2666
630.672	2678
630.724	2690
630.776	2692
630.828	2690
630.88	2710
630.932	2666
630.984	2764
631.036	2662
631.088	2696
631.14	2732
631.191	2768
631.243	2736
631.295	2668
631.347	2710
631.399	2746
631.451	2708
631.503	2730
631.555	2796
631.607	2772
631.659	2752
631.71	2776
631.762	2818
631.814	2800
631.866	2724
631.918	2824
631.97	2788
632.022	2786
632.074	2800
632.126	2824
632.178	2808
632.229	2818
632.281	2830
632.333	2818
632.385	2804
632.437	2806
632.489	2794
632.541	2872
632.593	2858
632.645	2842
632.696	2860
632.748	2840
632.8	2886
632.852	2918
632.904	2868
632.956	2880
633.008	2836
633.06	2884
633.112	2900
633.164	2848
633.215	2826
633.267	2882
633.319	2924
633.371	2936
633.423	2952
633.475	2936
633.527	2882
633.579	2970
633.63	2974
633.682	2934
633.734	2852
633.786	2918
633.838	2974
633.89	2936
633.942	2986
633.994	2984
634.046	2938
634.097	2898
634.149	2990
634.201	2974
634.253	2954
634.305	2968
634.357	2998
634.409	3034
634.461	3020
634.512	2974
634.564	2956
634.616	3046
634.668	3026
634.72	3068
634.772	3092
634.824	3046
634.876	3038
634.927	3062
634.979	3104
635.031	3084
635.083	3110
635.135	3056
635.187	3156
635.239	3112
635.291	3152
635.342	3150
635.394	3176
635.446	3212
635.498	3118
635.55	3204
635.602	3218
635.654	3232
635.705	3204
635.757	3228
635.809	3182
635.861	3228
635.913	3266
635.965	3334
636.017	3338
636.068	3252
636.12	3380
636.172	3408
636.224	3322
636.276	3462
636.328	3366
636.38	3388
636.431	3470
636.483	3456
636.535	3474
636.587	3488
636.639	3514
636.691	3526
636.743	3542
636.794	3630
636.846	3602
636.898	3586
636.95	3632
637.002	3742
637.054	3748
637.106	3746
637.157	3790
637.209	3794
637.261	3848
637.313	3886
637.365	3944
637.417	3864
637.469	3884
637.52	3956
637.572	3964
637.624	3982
637.676	4062
637.728	4060
637.78	4132
637.831	4118
637.883	4052
637.935	4152
637.987	4210
638.039	4154
638.091	4240
638.143	4236
638.194	4228
638.246	4230
638.298	4254
638.35	4336
638.402	4316
638.454	4270
638.505	4272
638.557	4280
638.609	4382
638.661	4266
638.713	4284
638.765	4296
638.816	4336
638.868	4278
638.92	4264
638.972	4296
639.024	4256
639.076	4228
639.127	4326
639.179	4296
639.231	4300
639.283	4218
639.335	4174
639.387	4180
639.438	4180
639.49	4210
639.542	4154
639.594	4200
639.646	4192
639.698	4152
639.749	4096
639.801	4184
639.853	4026
639.905	4052
639.957	4018
640.008	4038
640.06	4008
640.112	4030
640.164	3990
640.216	3952
640.268	3974
640.319	3944
640.371	3912
640.423	3934
640.475	3932
640.527	3856
640.578	3850
640.63	3872
640.682	3884
640.734	3854
640.786	3884
640.838	3864
640.889	3860
640.941	3824
640.993	3816
641.045	3776
641.097	3798
641.148	3786
641.2	3772
641.252	3728
641.304	3670
641.356	3728
641.408	3746
641.459	3796
641.511	3738
641.563	3738
641.615	3728
641.667	3766
641.718	3750
641.77	3736
641.822	3704
641.874	3720
641.926	3740
641.977	3690
642.029	3708
642.081	3688
642.133	3702
642.185	3734
642.236	3700
642.288	3736
642.34	3780
642.392	3750
642.444	3690
642.495	3628
642.547	3728
642.599	3716
642.651	3724
642.703	3750
642.754	3700
642.806	3708
642.858	3706
642.91	3738
642.962	3690
643.013	3722
643.065	3724
643.117	3736
643.169	3746
643.221	3784
643.272	3718
643.324	3774
643.376	3726
643.428	3732
643.479	3702
643.531	3726
643.583	3740
643.635	3672
643.687	3714
643.738	3658
643.79	3728
643.842	3768
643.894	3748
643.946	3784
643.997	3704
644.049	3762
644.101	3666
644.153	3736
644.205	3730
644.256	3714
644.308	3764
644.36	3806
644.412	3754
644.463	3748
644.515	3728
644.567	3720
644.619	3820
644.671	3772
644.722	3754
644.774	3762
644.826	3786
644.878	3748
644.929	3836
644.981	3844
645.033	3830
645.085	3778
645.136	3780
645.188	3786
645.24	3848
645.292	3790
645.344	3770
645.395	3822
645.447	3828
645.499	3816
645.551	3858
645.602	3804
645.654	3890
645.706	3770
645.758	3804
645.81	3788
645.861	3850
645.913	3896
645.965	3898
646.017	3810
646.068	3846
646.12	3856
646.172	3864
646.224	3868
646.275	3800
646.327	3780
646.379	3878
646.431	3854
646.482	3890
646.534	3878
646.586	3842
646.638	3876
646.689	3914
646.741	3904
646.793	3802
646.845	3878
646.896	3898
646.948	3912
647	3870
647.052	3836
647.104	3834
647.155	3830
647.207	3898
647.259	3948
647.31	3900
647.362	3886
647.414	3948
647.466	3884
647.518	3954
647.569	3948
647.621	3892
647.673	3968
647.724	3890
647.776	3902
647.828	3958
647.88	3890
647.931	3948
647.983	3950
648.035	3962
648.087	3964
648.138	4006
648.19	3942
648.242	3984
648.294	3954
648.345	4022
648.397	3940
648.449	3974
648.501	3990
648.552	3952
648.604	4026
648.656	3984
648.708	4066
648.759	4038
648.811	4010
648.863	4020
648.915	3978
648.966	3990
649.018	4040
649.07	4038
649.121	4072
649.173	3984
649.225	3966
649.277	4044
649.328	4094
649.38	4046
649.432	4048
649.484	4088
649.535	4044
649.587	4096
649.639	4048
649.69	4096
649.742	4120
649.794	4096
649.846	4112
649.897	4140
649.949	4126
650.001	4090
650.053	4184
650.104	4146
650.156	4184
650.208	4168
650.259	4134
650.311	4188
650.363	4124
650.415	4132
650.466	4168
650.518	4140
650.57	4198
650.621	4196
650.673	4150
650.725	4160
650.777	4166
650.828	4184
650.88	4214
650.932	4194
650.984	4216
651.035	4158
651.087	4244
651.139	4234
651.19	4260
651.242	4216
651.294	4232
651.345	4260
651.397	4192
651.449	4178
651.501	4260
651.552	4202
651.604	4254
651.656	4268
651.707	4256
651.759	4320
651.811	4298
651.863	4252
651.914	4326
651.966	4336
652.018	4374
652.069	4320
652.121	4332
652.173	4366
652.224	4310
652.276	4308
652.328	4300
652.38	4322
652.431	4344
652.483	4328
652.535	4378
652.586	4440
652.638	4414
652.69	4428
652.741	4392
652.793	4324
652.845	4432
652.897	4350
652.948	4432
653	4440
653.052	4406
653.103	4464
653.155	4392
653.207	4408
653.258	4460
653.31	4456
653.362	4450
653.413	4436
653.465	4498
653.517	4500
653.568	4512
653.62	4498
653.672	4492
653.724	4510
653.775	4462
653.827	4510
653.879	4566
653.93	4520
653.982	4530
654.034	4496
654.085	4522
654.137	4530
654.189	4506
654.24	4522
654.292	4604
654.344	4562
654.395	4570
654.447	4606
654.499	4580
654.55	4660
654.602	4620
654.654	4580
654.705	4614
654.757	4620
654.809	4668
654.86	4586
654.912	4632
654.964	4698
655.016	4660
655.067	4722
655.119	4702
655.17	4682
655.222	4778
655.274	4752
655.326	4694
655.377	4792
655.429	4766
655.481	4788
655.532	4730
655.584	4814
655.635	4808
655.687	4832
655.739	4866
655.79	4808
655.842	4794
655.894	4844
655.945	4910
655.997	4820
656.049	4916
656.1	4918
656.152	4874
656.204	4940
656.255	4842
656.307	4878
656.359	4966
656.41	4964
656.462	4966
656.514	4976
656.565	4978
656.617	4990
656.669	4992
656.72	4982
656.772	5014
656.824	5032
656.875	5020
656.927	5030
656.979	5044
657.03	5046
657.082	5046
657.134	5056
657.185	5128
657.237	5060
657.288	5100
657.34	5056
657.392	5156
657.443	5070
657.495	5064
657.547	5166
657.598	5118
657.65	5126
657.702	5054
657.753	5188
657.805	5206
657.857	5156
657.908	5224
657.96	5222
658.011	5210
658.063	5240
658.115	5244
658.166	5222
658.218	5198
658.27	5174
658.321	5276
658.373	5216
658.425	5264
658.476	5236
658.528	5274
658.579	5292
658.631	5214
658.683	5274
658.734	5244
658.786	5304
658.838	5320
658.889	5324
658.941	5282
658.992	5282
659.044	5316
659.096	5320
659.147	5326
659.199	5312
659.251	5362
659.302	5300
659.354	5278
659.406	5226
659.457	5296
659.509	5314
659.56	5328
659.612	5334
659.664	5328
659.715	5368
659.767	5274
659.818	5386
659.87	5362
659.922	5410
659.973	5390
660.025	5358
660.077	5340
660.128	5344
660.18	5370
660.231	5360
660.283	5324
660.335	5410
660.386	5392
660.438	5374
660.49	5388
660.541	5340
660.593	5330
660.644	5354
660.696	5406
660.748	5406
660.799	5382
660.851	5398
660.902	5422
660.954	5406
661.006	5410
661.057	5468
661.109	5376
661.16	5350
661.212	5408
661.264	5352
661.315	5386
661.367	5342
661.418	5426
661.47	5390
661.522	5398
661.573	5346
661.625	5418
661.676	5398
661.728	5374
661.78	5412
661.831	5418
661.883	5376
661.934	5432
661.986	5396
662.038	5352
662.089	5338
662.141	5386
662.192	5404
662.244	5484
662.296	5270
662.347	5374
662.399	5366
662.45	5408
662.502	5360
662.554	5408
662.605	5404
662.657	5404
662.708	5414
662.76	5330
662.811	5384
662.863	5432
662.915	5394
662.966	5408
663.018	5442
663.069	5432
663.121	5428
663.173	5466
663.224	5394
663.276	5452
663.327	5484
663.379	5478
663.43	5442
663.482	5484
663.534	5410
663.585	5440
663.637	5354
663.688	5490
663.74	5374.81
663.792	5495.13
663.843	5454.04
663.895	5379.06
663.946	5397
663.998	5407.8
664.049	5406.32
664.101	5497.91
664.153	5416.11
664.204	5475.47
664.256	5446.94
664.307	5398.46
664.359	5493.89
664.41	5478.23
664.462	5451.72
664.513	5442.13
664.565	5376.73
664.617	5459.59
664.668	5394.05
664.72	5401.04
664.771	5430.43
664.823	5431.28
664.874	5430.1
664.926	5421.54
664.978	5393.96
665.029	5442.2
665.081	5427.67
665.132	5442.01
665.184	5420.97
665.235	5467.7
665.287	5409.35
665.339	5406.48
665.39	5482.04
665.442	5452.96
665.493	5439.13
665.545	5434.82
665.596	5424.88
665.648	5439.46
665.699	5432.21
665.751	5399.32
665.802	5475.96
665.854	5432.48
665.906	5472.51
665.957	5430.13
666.009	5406.3
666.06	5381.69
666.112	5404.66
666.163	5413.34
666.215	5408.01
666.266	5415.59
666.318	5462.16
666.37	5429.66
666.421	5454.8
666.473	5397
666.524	5416.73
666.576	5413.26
666.627	5442.84
666.679	5401.54
666.73	5338.67
666.782	5352.62
666.833	5395.06
666.885	5418.52
666.937	5407.57
666.988	5432.13
667.04	5422.17
667.091	5415.17
667.143	5418.5
667.194	5404.14
667.246	5416.77
667.297	5422.72
667.349	5430.97
667.4	5447.38
667.452	5452.86
667.503	5409.78
667.555	5415.2
667.607	5421.29
667.658	5442
667.71	5437.76
667.761	5417.94
667.813	5432.87
667.864	5385.2
667.916	5412.7
667.967	5446.74
668.019	5407.75
668.07	5419.92
668.122	5374.83
668.173	5398.48
668.225	5398.99
668.276	5405.66
668.328	5372.67
668.379	5396.12
668.431	5353.16
668.482	5436.72
668.534	5412.14
668.586	5417.88
668.637	5472.44
668.689	5373.22
668.74	5370.68
668.792	5390.26
668.843	5405.06
668.895	5423.15
668.935	5428
668.987	5436
669.038	5370
669.09	5388
669.142	5412
669.194	5410
669.245	5400
669.297	5388
669.349	5388
669.401	5346
669.453	5472
669.504	5412
669.556	5406
669.608	5330
669.66	5392
669.711	5458
669.763	5450
669.815	5406
669.867	5388
669.918	5392
669.97	5370
670.022	5416
670.074	5346
670.125	5414
670.177	5430
670.229	5400
670.281	5440
670.332	5354
670.384	5422
670.436	5432
670.488	5376
670.539	5422
670.591	5354
670.643	5388
670.695	5426
670.747	5458
670.798	5392
670.85	5388
670.902	5304
670.953	5412
671.005	5400
671.057	5430
671.109	5362
671.161	5480
671.212	5396
671.264	5470
671.316	5408
671.367	5400
671.419	5402
671.471	5358
671.523	5406
671.575	5402
671.626	5354
671.678	5400
671.73	5404
671.781	5398
671.833	5430
671.885	5436
671.937	5378
671.988	5412
672.04	5414
672.092	5394
672.144	5428
672.195	5452
672.247	5470
672.299	5426
672.351	5452
672.402	5434
672.454	5380
672.506	5430
672.558	5458
672.609	5378
672.661	5414
672.713	5412
672.765	5468
672.816	5430
672.868	5384
672.92	5434
672.971	5538
673.023	5476
673.075	5434
673.127	5470
673.178	5534
673.23	5482
673.282	5468
673.334	5440
673.385	5480
673.437	5516
673.489	5482
673.54	5572
673.592	5546
673.644	5550
673.696	5546
673.747	5494
673.799	5488
673.851	5454
673.903	5490
673.954	5592
674.006	5504
674.058	5586
674.109	5524
674.161	5530
674.213	5602
674.265	5578
674.316	5602
674.368	5590
674.42	5618
674.471	5594
674.523	5650
674.575	5628
674.627	5590
674.678	5602
674.73	5658
674.782	5576
674.833	5626
674.885	5632
674.937	5650
674.989	5648
675.04	5628
675.092	5746
675.144	5636
675.195	5604
675.247	5654
675.299	5634
675.351	5644
675.402	5642
675.454	5656
675.506	5726
675.557	5610
675.609	5622
675.661	5738
675.713	5662
675.764	5686
675.816	5714
675.868	5712
675.919	5718
675.971	5682
676.023	5696
676.074	5720
676.126	5662
676.178	5718
676.23	5666
676.281	5740
676.333	5768
676.385	5736
676.436	5712
676.488	5774
676.54	5762
676.591	5700
676.643	5770
676.695	5724
676.747	5800
676.798	5732
676.85	5672
676.902	5728
676.953	5688
677.005	5674
677.057	5742
677.108	5742
677.16	5644
677.212	5732
677.263	5700
677.315	5734
677.367	5714
677.419	5744
677.47	5798
677.522	5740
677.574	5700
677.625	5750
677.677	5802
677.729	5730
677.78	5766
677.832	5696
677.884	5690
677.935	5706
677.987	5654
678.039	5690
678.091	5692
678.142	5660
678.194	5752
678.246	5820
678.297	5752
678.349	5706
678.401	5684
678.452	5706
678.504	5720
678.556	5718
678.607	5682
678.659	5696
678.711	5734
678.762	5722
678.814	5716
678.866	5740
678.917	5772
678.969	5750
679.021	5726
679.072	5706
679.124	5778
679.176	5690
679.227	5736
679.279	5724
679.331	5724
679.382	5720
679.434	5700
679.486	5762
679.537	5730
679.589	5750
679.641	5752
679.692	5804
679.744	5806
679.796	5724
679.847	5738
679.899	5754
679.951	5710
680.003	5756
680.054	5728
680.106	5738
680.157	5780
680.209	5826
680.261	5744
680.312	5722
680.364	5760
680.416	5796
680.467	5746
680.519	5834
680.571	5852
680.622	5754
680.674	5710
680.726	5772
680.777	5766
680.829	5776
680.881	5774
680.932	5766
680.984	5876
681.036	5800
681.087	5768
681.139	5802
681.191	5876
681.242	5828
681.294	5832
681.346	5842
681.397	5822
681.449	5860
681.501	5882
681.552	5834
681.604	5918
681.656	5814
681.707	5798
681.759	5794
681.81	5862
681.862	5914
681.914	5920
681.965	5888
682.017	5816
682.069	5890
682.12	5944
682.172	5822
682.224	5942
682.275	5842
682.327	5954
682.379	5934
682.43	5952
682.482	5898
682.533	5804
682.585	5854
682.637	5910
682.688	5900
682.74	5938
682.792	5906
682.843	5972
682.895	5882
682.947	5820
682.998	5954
683.05	5886
683.102	5934
683.153	5944
683.205	5894
683.256	5844
683.308	5942
683.36	5970
683.411	5968
683.463	5898
683.515	5972
683.566	5880
683.618	5920
683.669	5878
683.721	5936
683.773	5886
683.824	5810
683.876	5882
683.928	5886
683.979	5850
684.031	5924
684.082	5836
684.134	5892
684.186	5804
684.237	5892
684.289	5846
684.341	5888
684.392	5858
684.444	5834
684.495	5898
684.547	5822
684.599	5876
684.65	5870
684.702	5844
684.754	5810
684.805	5864
684.857	5852
684.908	5904
684.96	5842
685.012	5744
685.063	5840
685.115	5838
685.166	5816
685.218	5872
685.27	5764
685.321	5772
685.373	5858
685.424	5842
685.476	5792
685.528	5798
685.579	5900
685.631	5806
685.683	5772
685.734	5750
685.786	5796
685.837	5802
685.889	5758
685.941	5834
685.992	5760
686.044	5742
686.095	5764
686.147	5816
686.199	5742
686.25	5712
686.302	5754
686.353	5780
686.405	5706
686.457	5784
686.508	5828
686.56	5804
686.611	5802
686.663	5788
686.715	5798
686.766	5740
686.818	5822
686.869	5748
686.921	5730
686.973	5718
687.024	5720
687.076	5760
687.127	5712
687.179	5734
687.231	5728
687.282	5750
687.334	5734
687.385	5702
687.437	5802
687.489	5758
687.54	5778
687.592	5808
687.643	5766
687.695	5730
687.747	5710
687.798	5816
687.85	5742
687.901	5790
687.953	5792
688.004	5680
688.056	5728
688.108	5682
688.159	5732
688.211	5750
688.262	5726
688.314	5776
688.366	5750
688.417	5764
688.469	5770
688.52	5734
688.572	5728
688.623	5682
688.675	5686
688.727	5710
688.778	5738
688.83	5778
688.881	5734
688.933	5748
688.984	5712
689.036	5732
689.088	5770
689.139	5682
689.191	5732
689.242	5742
689.294	5728
689.346	5714
689.397	5660
689.449	5714
689.5	5738
689.552	5710
689.603	5746
689.655	5696
689.706	5658
689.758	5692
689.81	5760
689.861	5674
689.913	5732
689.964	5660
690.016	5718
690.067	5688
690.119	5678
690.171	5646
690.222	5714
690.274	5602
690.325	5648
690.377	5622
690.428	5612
690.48	5654
690.531	5588
690.583	5622
690.635	5726
690.686	5688
690.738	5634
690.789	5606
690.841	5588
690.892	5634
690.944	5670
690.996	5586
691.047	5602
691.099	5664
691.15	5526
691.202	5654
691.253	5646
691.305	5640
691.356	5634
691.408	5602
691.459	5606
691.511	5636
691.563	5532
691.614	5542
691.666	5574
691.717	5646
691.769	5600
691.82	5628
691.872	5554
691.923	5540
691.975	5580
692.026	5462
692.078	5532
692.13	5514
692.181	5528
692.233	5562
692.284	5520
692.336	5582
692.387	5518
692.439	5468
692.49	5516
692.542	5590
692.593	5522
692.645	5476
692.697	5564
692.748	5476
692.8	5486
692.851	5392
692.903	5520
692.954	5476
693.006	5500
693.057	5452
693.109	5458
693.16	5494
693.212	5528
693.263	5522
693.315	5482
693.366	5438
693.418	5470
693.47	5440
693.521	5380
693.573	5538
693.624	5438
693.676	5460
693.727	5458
693.779	5426
693.83	5500
693.882	5440
693.933	5392
693.985	5422
694.036	5438
694.088	5442
694.139	5408
694.191	5482
694.242	5390
694.294	5434
694.345	5444
694.397	5364
694.448	5372
694.5	5378
694.552	5458
694.603	5488
694.655	5432
694.706	5382
694.758	5466
694.809	5410
694.861	5414
694.912	5430
694.964	5304
695.015	5428
695.067	5482
695.118	5428
695.17	5370
695.221	5476
695.273	5412
695.324	5342
695.376	5382
695.427	5362
695.479	5404
695.53	5408
695.582	5420
695.633	5384
695.685	5288
695.736	5358
695.788	5370
695.839	5330
695.891	5354
695.942	5390
695.994	5326
696.045	5350
696.097	5376
696.148	5350
696.2	5356
696.251	5364
696.303	5364
696.354	5372
696.406	5392
696.457	5358
696.509	5358
696.56	5326
696.612	5316
696.663	5322
696.715	5230
696.766	5288
696.818	5294
696.869	5222
696.921	5244
696.972	5224
697.024	5256
697.075	5264
697.127	5384
697.178	5304
697.23	5304
697.281	5212
697.333	5234
697.384	5342
697.436	5234
697.487	5242
697.539	5272
697.59	5272
697.642	5208
697.693	5246
697.745	5292
697.796	5212
697.847	5292
697.899	5196
697.95	5280
698.002	5170
698.053	5222
698.105	5200
698.156	5138
698.208	5128
698.259	5200
698.311	5146
698.362	5164
698.414	5158
698.465	5164
698.517	5176
698.568	5152
698.62	5122
698.671	5116
698.723	5104
698.774	5164
698.826	5112
698.877	5190
698.928	5108
698.98	5140
699.031	5174
699.083	5094
699.134	5056
699.186	5168
699.237	5088
699.289	5124
699.34	5076
699.392	5120
699.443	5054
699.495	5084
699.546	5082
699.598	5136
699.649	5060
699.7	5088
699.752	5130
699.803	5100
699.855	5010
699.906	5086
699.958	5088
700.009	5128
700.061	5076
700.112	5070
700.164	4994
700.215	5058
700.266	5030
700.318	5062
700.369	5044
700.421	5044
700.472	4994
700.524	5080
700.575	5014
700.627	4960
700.678	5018
700.73	5064
700.781	5002
700.832	5098
700.884	5072
700.935	5104
700.987	5018
701.038	5080
701.09	4962
701.141	5036
701.193	4996
701.244	5060
701.295	4974
701.347	5054
701.398	5104
701.45	5128
701.501	5018
701.553	5018
701.604	5012
701.656	5088
701.707	5026
701.758	5076
701.81	5034
701.861	5080
701.913	5062
701.964	5104
702.016	5102
702.067	4992
702.119	4974
702.17	5026
702.221	5026
702.273	5024
702.324	5092
702.376	5028
702.427	5032
702.479	5062
702.53	5052
702.581	5084
702.633	5090
702.684	5054
702.736	5086
702.787	5098
702.839	5010
702.89	5024
702.941	5058
702.993	5018
703.044	5014
703.096	5028
703.147	5056
703.199	5062
703.25	5046
703.301	5034
703.353	5038
703.404	4950
703.456	5042
703.507	4980
703.558	5026
703.61	4916
703.661	5022
703.713	4992
703.764	4968
703.816	5024
703.867	5000
703.918	5008
703.97	5020
704.021	4960
704.073	4988
704.124	4914
704.175	4936
704.227	4980
704.278	4888
704.33	4952
704.381	4952
704.432	5030
704.484	4968
704.535	4976
704.587	4934
704.638	4976
704.69	4922
704.741	4884
704.792	4926
704.844	4880
704.895	4906
704.947	4940
704.998	4932
705.049	4964
705.101	4908
705.152	4862
705.204	4864
705.255	4960
705.306	4878
705.358	4844
705.409	4864
705.461	4848
705.512	4882
705.563	4858
705.615	4964
705.666	4870
705.718	4792
705.769	4844
705.82	4760
705.872	4862
705.923	4798
705.974	4792
706.026	4850
706.077	4822
706.129	4830
706.18	4838
706.231	4790
706.283	4834
706.334	4806
706.386	4794
706.437	4814
706.488	4852
706.54	4748
706.591	4752
706.643	4736
706.694	4688
706.745	4702
706.797	4766
706.848	4756
706.899	4790
706.951	4818
707.002	4768
707.054	4754
707.105	4772
707.156	4686
707.208	4742
707.259	4708
707.31	4670
707.362	4740
707.413	4744
707.465	4678
707.516	4716
707.567	4700
707.619	4734
707.67	4644
707.721	4642
707.773	4722
707.824	4728
707.876	4678
707.927	4676
707.978	4658
708.03	4680
708.081	4712
708.132	4720
708.184	4662
708.235	4656
708.287	4620
708.338	4638
708.389	4674
708.441	4638
708.492	4612
708.543	4646
708.595	4662
708.646	4644
708.697	4672
708.749	4664
708.8	4620
708.852	4640
708.903	4614
708.954	4646
709.006	4624
709.057	4650
709.108	4628
709.16	4664
709.211	4598
709.262	4608
709.314	4648
709.365	4592
709.416	4618
709.468	4630
709.519	4606
709.57	4624
709.622	4514
709.673	4592
709.725	4574
709.776	4580
709.827	4594
709.879	4582
709.93	4524
709.981	4564
710.033	4564
710.084	4580
710.135	4620
710.187	4562
710.238	4528
710.289	4634
710.341	4584
710.392	4574
710.443	4612
710.495	4558
710.546	4612
710.597	4576
710.649	4592
710.7	4520
710.751	4544
710.803	4518
710.854	4528
710.905	4578
710.957	4544
711.008	4512
711.059	4516
711.111	4510
711.162	4510
711.213	4526
711.265	4534.37
711.316	4503.08
711.367	4527.71
711.419	4486.18
711.47	4517.96
711.521	4521.89
711.573	4503.33
711.624	4522.2
711.675	4514.73
711.727	4554.6
711.778	4473.27
711.829	4433.97
711.881	4502.71
711.932	4492.42
711.983	4479.17
712.035	4498.65
712.086	4484.77
712.137	4475.14
712.189	4457.49
712.24	4482.65
712.291	4481.88
712.343	4385.12
712.394	4458.57
712.445	4376.69
712.496	4411.85
712.548	4423.09
712.599	4394.8
712.65	4396.75
712.702	4414.22
712.753	4404.4
712.804	4392.11
712.856	4443.32
712.907	4392.45
712.958	4400.5
713.01	4369.02
713.061	4400.3
713.112	4339.98
713.164	4385.4
713.215	4352.42
713.266	4362.96
713.317	4339.66
713.369	4354.41
713.42	4378.95
713.471	4397.76
713.523	4323.41
713.574	4308.71
713.625	4364.48
713.677	4313.58
713.728	4353.86
713.779	4304.58
713.831	4323.25
713.882	4297.35
713.933	4311.82
713.984	4300.37
714.036	4292.4
714.087	4289.95
714.138	4281.75
714.19	4291.77
714.241	4293.66
714.292	4273.96
714.343	4282.07
714.395	4288.47
714.446	4227.47
714.497	4244.37
714.549	4275.84
714.6	4240.84
714.651	4209.03
714.703	4235.2
714.754	4217.39
714.805	4189.42
714.856	4236.73
714.908	4249.81
714.959	4218.47
715.01	4222.04
715.062	4230.26
715.113	4246.24
715.164	4222.66
715.215	4207.17
715.267	4203.27
715.318	4227.23
715.369	4201.21
715.421	4164.37
715.472	4180.66
715.523	4212.58
715.574	4190.11
715.626	4182.3
715.677	4152.27
715.728	4093.1
715.779	4133.05
715.831	4164.1
715.882	4136.5
715.933	4121.72
715.985	4131.91
716.036	4107.21
716.087	4099.44
716.138	4085.27
716.19	4132.04
716.241	4171.55
716.292	4157.23
716.343	4107.14
716.395	4090.37
716.433	4096
716.485	4140
716.536	4118
716.588	4112
716.639	4126
716.691	4118
716.742	4138
716.794	4088
716.845	4120
716.897	4050
716.948	4088
717	4084
717.052	4034
717.103	4114
717.155	4060
717.206	4116
717.258	4052
717.309	4038
717.361	4056
717.412	4052
717.464	4082
717.515	4058
717.567	4034
717.618	4010
717.67	3994
717.721	4104
717.773	4080
717.824	4038
717.876	4034
717.927	4012
717.979	3974
718.03	4034
718.082	4006
718.133	4038
718.185	3988
718.237	4006
718.288	3988
718.34	3952
718.391	4004
718.443	4014
718.494	4014
718.546	3992
718.597	3910
718.649	3986
718.7	3986
718.752	3942
718.803	3988
718.855	4066
718.906	3942
718.958	3944
719.009	3974
719.061	3938
719.112	4002
719.164	3986
719.215	3928
719.267	3934
719.318	3938
719.37	3926
719.421	3886
719.473	3934
719.524	3950
719.576	3946
719.627	3904
719.679	3900
719.73	3874
719.782	3934
719.833	3884
719.885	3826
719.936	3874
719.988	3944
720.039	3860
720.091	3926
720.142	3848
720.194	3806
720.245	3878
720.297	3828
720.348	3824
720.4	3868
720.451	3818
720.503	3838
720.554	3838
720.606	3824
720.657	3824
720.709	3770
720.76	3824
720.812	3790
720.863	3796
720.915	3798
720.966	3794
721.018	3798
721.069	3768
721.121	3830
721.172	3776
721.224	3782
721.275	3784
721.327	3778
721.378	3778
721.43	3678
721.481	3736
721.532	3764
721.584	3786
721.635	3726
721.687	3678
721.738	3704
721.79	3700
721.841	3684
721.893	3676
721.944	3714
721.996	3692
722.047	3706
722.099	3688
722.15	3690
722.202	3682
722.253	3694
722.305	3674
722.356	3688
722.408	3668
722.459	3674
722.511	3632
722.562	3656
722.614	3676
722.665	3672
722.716	3638
722.768	3602
722.819	3736
722.871	3654
722.922	3604
722.974	3688
723.025	3640
723.077	3638
723.128	3644
723.18	3616
723.231	3632
723.283	3632
723.334	3602
723.386	3552
723.437	3618
723.488	3580
723.54	3602
723.591	3588
723.643	3592
723.694	3544
723.746	3518
723.797	3500
723.849	3590
723.9	3596
723.952	3544
724.003	3536
724.055	3564
724.106	3580
724.157	3562
724.209	3514
724.26	3552
724.312	3508
724.363	3516
724.415	3502
724.466	3568
724.518	3530
724.569	3536
724.621	3532
724.672	3510
724.723	3518
724.775	3524
724.826	3506
724.878	3520
724.929	3490
724.981	3504
725.032	3496
725.084	3494
725.135	3488
725.187	3466
725.238	3460
725.289	3554
725.341	3426
725.392	3490
725.444	3478
725.495	3510
725.547	3468
725.598	3460
725.65	3474
725.701	3476
725.752	3474
725.804	3520
725.855	3496
725.907	3482
725.958	3416
726.01	3436
726.061	3452
726.112	3460
726.164	3404
726.215	3392
726.267	3436
726.318	3438
726.37	3454
726.421	3400
726.473	3406
726.524	3370
726.575	3402
726.627	3420
726.678	3360
726.73	3422
726.781	3392
726.833	3422
726.884	3402
726.935	3358
726.987	3342
727.038	3378
727.09	3388
727.141	3380
727.193	3322
727.244	3370
727.295	3360
727.347	3372
727.398	3332
727.45	3342
727.501	3282
727.552	3270
727.604	3294
727.655	3310
727.707	3324
727.758	3266
727.81	3212
727.861	3320
727.912	3344
727.964	3196
728.015	3324
728.067	3272
728.118	3280
728.17	3204
728.221	3244
728.272	3254
728.324	3298
728.375	3296
728.427	3218
728.478	3272
728.529	3318
728.581	3210
728.632	3278
728.684	3168
728.735	3234
728.786	3174
728.838	3214
728.889	3194
728.941	3172
728.992	3200
729.044	3198
729.095	3164
729.146	3160
729.198	3130
729.249	3146
729.301	3100
729.352	3130
729.403	3204
729.455	3170
729.506	3118
729.558	3150
729.609	3114
729.66	3162
729.712	3144
729.763	3156
729.815	3092
729.866	3122
729.917	3116
729.969	3090
730.02	3106
730.072	3060
730.123	3100
730.174	3138
730.226	3112
730.277	3082
730.329	3036
730.38	3084
730.431	3048
730.483	3120
730.534	3092
730.586	3102
730.637	3086
730.688	3032
730.74	3082
730.791	3060
730.842	3048
730.894	3062
730.945	3048
730.997	3050
731.048	3048
731.099	3072
731.151	3058
731.202	3034
731.254	3050
731.305	3028
731.356	2988
731.408	3018
731.459	3050
731.51	3012
731.562	2934
731.613	3024
731.665	2984
731.716	3004
731.767	2966
731.819	3026
731.87	2984
731.922	3030
731.973	3008
732.024	2988
732.076	3028
732.127	2988
732.178	2976
732.23	3022
732.281	2980
732.333	2980
732.384	2938
732.435	2948
732.487	2986
732.538	3012
732.589	2930
732.641	2944
732.692	2938
732.744	2978
732.795	2934
732.846	2956
732.898	2934
732.949	2930
733	2952
733.052	2908
733.103	3020
733.154	2994
733.206	2926
733.257	2928
733.309	2946
733.36	2954
733.411	2928
733.463	2910
733.514	2910
733.565	2892
733.617	2950
733.668	2972
733.719	2900
733.771	2886
733.822	2924
733.873	2920
733.925	2888
733.976	2908
734.028	2954
734.079	2930
734.13	2920
734.182	2888
734.233	2902
734.284	2910
734.336	2894
734.387	2972
734.438	2910
734.49	2906
734.541	2876
734.592	2908
734.644	2944
734.695	2944
734.747	2882
734.798	2888
734.849	2918
734.901	2910
734.952	2896
735.003	2892
735.055	2924
735.106	2936
735.157	2886
735.209	2884
735.26	2900
735.311	2946
735.363	2928
735.414	2900
735.465	2960
735.517	2914
735.568	2902
735.619	2940
735.671	2904
735.722	2870
735.773	2896
735.825	2868
735.876	2828
735.927	2900
735.979	2940
736.03	2906
736.081	2910
736.133	2894
736.184	2878
736.235	2956
736.287	2936
736.338	2916
736.389	2884
736.441	2918
736.492	2918
736.543	2914
736.595	2910
736.646	2950
736.697	2902
736.749	2894
736.8	2954
736.851	2910
736.903	2912
736.954	2920
737.005	2926
737.057	2928
737.108	2900
737.159	2960
737.211	2948
737.262	2934
737.313	2960
737.365	2868
737.416	2990
737.467	2912
737.518	2974
737.57	2932
737.621	2962
737.672	2938
737.724	2968
737.775	2912
737.826	2970
737.878	2922
737.929	2928
737.98	2914
738.032	2872
738.083	2928
738.134	2934
738.186	2956
738.237	2912
738.288	2962
738.339	2904
738.391	2954
738.442	2948
738.493	2914
738.545	2928
738.596	2892
738.647	2952
738.699	2914
738.75	2902
738.801	2946
738.853	2894
738.904	2882
738.955	2876
739.006	2932
739.058	2914
739.109	2910
739.16	2804
739.212	2866
739.263	2878
739.314	2818
739.366	2878
739.417	2844
739.468	2844
739.519	2834
739.571	2816
739.622	2764
739.673	2870
739.725	2836
739.776	2830
739.827	2838
739.878	2834
739.93	2780
739.981	2810
740.032	2792
740.084	2758
740.135	2788
740.186	2796
740.237	2820
740.289	2774
740.34	2728
740.391	2762
740.443	2776
740.494	2720
740.545	2748
740.596	2774
740.648	2684
740.699	2752
740.75	2696
740.802	2762
740.853	2720
740.904	2732
740.956	2668
741.007	2680
741.058	2716
741.109	2656
741.161	2708
741.212	2696
741.263	2676
741.314	2664
741.366	2672
741.417	2704
741.468	2626
741.52	2690
741.571	2656
741.622	2690
741.673	2640
741.725	2632
741.776	2652
741.827	2662
741.878	2654
741.93	2636
741.981	2594
742.032	2600
742.083	2598
742.135	2628
742.186	2598
742.237	2596
742.289	2642
742.34	2634
742.391	2608
742.442	2606
742.494	2576
742.545	2592
742.596	2564
742.647	2596
742.699	2612
742.75	2608
742.801	2616
742.852	2590
742.904	2586
742.955	2598
743.006	2598
743.057	2578
743.109	2580
743.16	2538
743.211	2542
743.263	2514
743.314	2520
743.365	2508
743.416	2526
743.468	2520
743.519	2504
743.57	2510
743.621	2556
743.672	2528
743.724	2544
743.775	2524
743.826	2526
743.878	2498
743.929	2514
743.98	2498
744.031	2472
744.083	2490
744.134	2514
744.185	2506
744.236	2510
744.287	2438
744.339	2472
744.39	2484
744.441	2474
744.492	2444
744.544	2498
744.595	2496
744.646	2446
744.697	2424
744.749	2470
744.8	2462
744.851	2474
744.902	2438
744.954	2412
745.005	2458
745.056	2436
745.107	2416
745.159	2364
745.21	2420
745.261	2386
745.312	2430
745.363	2442
745.415	2438
745.466	2420
745.517	2390
745.568	2350
745.62	2378
745.671	2434
745.722	2422
745.773	2380
745.824	2390
745.876	2416
745.927	2370
745.978	2404
746.029	2392
746.081	2408
746.132	2372
746.183	2432
746.234	2430
746.285	2398
746.337	2376
746.388	2344
746.439	2384
746.49	2366
746.542	2390
746.593	2330
746.644	2310
746.695	2304
746.746	2366
746.798	2344
746.849	2356
746.9	2318
746.951	2316
747.003	2328
747.054	2380
747.105	2366
747.156	2310
747.207	2294
747.259	2358
747.31	2332
747.361	2338
747.412	2362
747.463	2306
747.515	2300
747.566	2374
747.617	2300
747.668	2340
747.719	2332
747.771	2294
747.822	2356
747.873	2270
747.924	2282
747.975	2286
748.027	2304
748.078	2354
748.129	2274
748.18	2314
748.231	2334
748.283	2264
748.334	2340
748.385	2350
748.436	2316
748.487	2292
748.539	2310
748.59	2302
748.641	2300
748.692	2316
748.743	2272
748.795	2296
748.846	2266
748.897	2244
748.948	2332
748.999	2270
749.05	2266
749.102	2296
749.153	2244
749.204	2260
749.255	2282
749.306	2250
749.358	2240
749.409	2276
749.46	2286
749.511	2290
749.562	2240
749.614	2200
749.665	2282
749.716	2234
749.767	2226
749.818	2256
749.869	2238
749.921	2258
749.972	2260
750.023	2246
750.074	2246
750.125	2232
750.177	2162
750.228	2178
750.279	2208
750.33	2176
750.381	2230
750.432	2188
750.484	2208
750.535	2210
750.586	2216
750.637	2226
750.688	2202
750.739	2228
750.791	2174
750.842	2256
750.893	2190
750.944	2166
750.995	2164
751.046	2196
751.098	2196
751.149	2172
751.2	2162
751.251	2196
751.302	2170
751.353	2202
751.404	2152
751.456	2122
751.507	2174
751.558	2172
751.609	2150
751.66	2142
751.711	2142
751.763	2142
751.814	2140
751.865	2174
751.916	2108
751.967	2148
752.018	2122
752.07	2150
752.121	2122
752.172	2140
752.223	2096
752.274	2142
752.325	2104
752.376	2094
752.428	2154
752.479	2138
752.53	2138
752.581	2120
752.632	2084
752.683	2098
752.734	2104
752.786	2068
752.837	2072
752.888	2066
752.939	2106
752.99	2048
753.041	2142
753.092	2100
753.144	2062
753.195	2064
753.246	2084
753.297	2080
753.348	2014
753.399	2060
753.45	2078
753.502	2036
753.553	2070
753.604	2012
753.655	2018
753.706	2076
753.757	2054
753.808	2092
753.859	2028
753.911	2022
753.962	2008
754.013	1998
754.064	2058
754.115	1994
754.166	2078
754.217	2038
754.269	2042
754.32	2022
754.371	1984
754.422	2052
754.473	1982
754.524	2066
754.575	2020
754.626	2020
754.678	2020
754.729	2018
754.78	1944
754.831	2010
754.882	2042
754.933	2032
754.984	2004
755.035	1988
755.086	1956
755.138	2006
755.189	1976
755.24	1986
755.291	2012
755.342	1938
755.393	1990
755.444	1976
755.495	1946
755.547	1976
755.598	2010
755.649	1896
755.7	1964
755.751	1944
755.802	1960
755.853	1964
755.904	1936
755.955	1984
756.006	1950
756.058	1912
756.109	1980
756.16	1958
756.211	1956
756.262	1906
756.313	1984
756.364	1970
756.415	1954
756.466	1944
756.518	1942
756.569	1928
756.62	1924
756.671	1938
756.722	1900
756.773	1918
756.824	1910
756.875	1994
756.926	1900
756.977	1896
757.029	1900
757.08	1908
757.131	1904
757.182	1934
757.233	1886
757.284	1892
757.335	1914
757.386	1876
757.437	1868
757.488	1888
757.539	1886
757.59	1890
757.642	1892
757.693	1912
757.744	1856
757.795	1896
757.846	1888
757.897	1872
757.948	1836
757.999	1872
758.05	1874
758.101	1888
758.152	1866
758.203	1840
758.255	1826
758.306	1844
758.357	1850
758.408	1846
758.459	1804
758.51	1864.01
758.561	1859.94
758.612	1881.35
758.663	1834.59
758.714	1801.62
758.765	1806.87
758.816	1810.2
758.867	1808.47
758.919	1827.71
758.97	1846.99
759.021	1819.88
759.072	1824.64
759.123	1808.49
759.174	1850.28
759.225	1833.72
759.276	1804.28
759.327	1776.27
759.378	1798.48
759.429	1820.39
759.48	1831.88
759.531	1802
759.582	1814.01
759.633	1800.36
759.685	1788.92
759.736	1773.28
759.787	1797.57
759.838	1801.09
759.889	1805.07
759.94	1787.1
759.991	1769.78
760.042	1751.44
760.093	1755.99
760.144	1797.34
760.195	1760.04
760.246	1776.27
760.297	1764.73
760.348	1724.41
760.399	1763.13
760.45	1739.81
760.501	1774.34
760.552	1721.86
760.603	1716.15
760.655	1746.28
760.706	1735.38
760.757	1748.98
760.808	1744.78
760.859	1749.81
760.91	1733.28
760.961	1713.41
761.012	1758.86
761.063	1732.66
761.114	1733.77
761.165	1716.06
761.216	1746.7
761.267	1716.95
761.318	1713.06
761.369	1720.52
761.42	1728.41
761.471	1723.85
761.522	1726.88
761.573	1711.12
761.624	1717.44
761.675	1711.13
761.726	1684.96
761.777	1715.3
761.828	1700.14
761.88	1703.72
761.931	1713.24
761.982	1714.39
762.033	1719.61
762.084	1714.14
762.135	1672.77
762.186	1701.26
762.237	1685.82
762.288	1661.9
762.339	1683.04
762.39	1689.01
762.441	1662.35
762.492	1655.84
762.543	1667.87
762.594	1656.11
762.645	1659.8
762.696	1682.85
762.747	1662.95
762.798	1664.35
762.849	1655.11
762.9	1634.02
762.951	1650.19
763.002	1633.72
763.053	1663.99
763.104	1656.44
763.155	1634.62
763.206	1652.66
763.257	1658.33
763.308	1649.83
763.359	1642.32
763.41	1657.67
763.461	1653.21
763.512	1641.71
763.563	1614.86
763.614	1621.83
763.665	1630.43
763.678	1632
763.729	1584
763.78	1638
763.832	1636
763.883	1618
763.934	1590
763.986	1628
764.037	1618
764.088	1578
764.139	1614
764.191	1578
764.242	1622
764.293	1574
764.345	1638
764.396	1592
764.447	1602
764.498	1604
764.55	1594
764.601	1594
764.652	1570
764.704	1568
764.755	1572
764.806	1598
764.857	1576
764.909	1614
764.96	1572
765.011	1584
765.062	1546
765.114	1568
765.165	1560
765.216	1590
765.268	1624
765.319	1548
765.37	1574
765.421	1562
765.473	1544
765.524	1564
765.575	1554
765.626	1564
765.678	1548
765.729	1514
765.78	1574
765.831	1574
765.883	1544
765.934	1552
765.985	1556
766.036	1526
766.088	1570
766.139	1538
766.19	1468
766.242	1534
766.293	1514
766.344	1570
766.395	1470
766.447	1532
766.498	1534
766.549	1508
766.6	1544
766.652	1508
766.703	1508
766.754	1484
766.805	1526
766.857	1560
766.908	1518
766.959	1520
767.01	1526
767.062	1488
767.113	1496
767.164	1506
767.215	1500
767.267	1484
767.318	1488
767.369	1486
767.42	1492
767.472	1488
767.523	1424
767.574	1434
767.625	1450
767.677	1470
767.728	1468
767.779	1476
767.83	1468
767.882	1484
767.933	1448
767.984	1458
768.035	1484
768.087	1484
768.138	1454
768.189	1468
768.24	1484
768.292	1450
768.343	1470
768.394	1454
768.445	1478
768.497	1430
768.548	1424
768.599	1462
768.65	1452
768.701	1408
768.753	1428
768.804	1442
768.855	1426
768.906	1408
768.958	1370
769.009	1434
769.06	1458
769.111	1402
769.163	1366
769.214	1414
769.265	1406
769.316	1426
769.367	1414
769.419	1400
769.47	1424
769.521	1392
769.572	1372
769.624	1420
769.675	1400
769.726	1362
769.777	1374
769.828	1390
769.88	1410
769.931	1404
769.982	1392
770.033	1422
770.085	1404
770.136	1330
770.187	1376
770.238	1376
770.289	1368
770.341	1358
770.392	1388
770.443	1356
770.494	1398
770.546	1388
770.597	1350
770.648	1364
770.699	1336
770.75	1366
770.802	1308
770.853	1338
770.904	1388
770.955	1366
771.006	1340
771.058	1302
771.109	1364
771.16	1318
771.211	1322
771.263	1332
771.314	1316
771.365	1318
771.416	1336
771.467	1318
771.519	1320
771.57	1332
771.621	1306
771.672	1350
771.723	1316
771.775	1310
771.826	1312
771.877	1314
771.928	1296
771.979	1300
772.031	1288
772.082	1312
772.133	1298
772.184	1276
772.235	1298
772.287	1288
772.338	1294
772.389	1288
772.44	1290
772.491	1326
772.543	1280
772.594	1242
772.645	1294
772.696	1306
772.747	1286
772.799	1254
772.85	1282
772.901	1244
772.952	1272
773.003	1260
773.055	1254
773.106	1278
773.157	1252
773.208	1306
773.259	1264
773.31	1264
773.362	1216
773.413	1224
773.464	1222
773.515	1214
773.566	1246
773.618	1250
773.669	1276
773.72	1250
773.771	1246
773.822	1234
773.873	1252
773.925	1202
773.976	1258
774.027	1228
774.078	1238
774.129	1208
774.18	1262
774.232	1230
774.283	1210
774.334	1232
774.385	1228
774.436	1206
774.488	1228
774.539	1188
774.59	1246
774.641	1190
774.692	1204
774.743	1192
774.795	1186
774.846	1202
774.897	1174
774.948	1184
774.999	1186
775.05	1202
775.102	1192
775.153	1128
775.204	1190
775.255	1170
775.306	1214
775.357	1166
775.409	1204
775.46	1208
775.511	1192
775.562	1170
775.613	1182
775.664	1178
775.716	1154
775.767	1182
775.818	1148
775.869	1184
775.92	1110
775.971	1186
776.023	1210
776.074	1166
776.125	1172
776.176	1184
776.227	1194
776.278	1158
776.329	1146
776.381	1150
776.432	1122
776.483	1142
776.534	1138
776.585	1138
776.636	1162
776.688	1136
776.739	1124
776.79	1142
776.841	1136
776.892	1144
776.943	1130
776.994	1142
777.046	1134
777.097	1126
777.148	1102
777.199	1114
777.25	1122
777.301	1158
777.352	1124
777.404	1086
777.455	1134
777.506	1112
777.557	1086
777.608	1112
777.659	1098
777.71	1098
777.762	1090
777.813	1114
777.864	1118
777.915	1126
777.966	1112
778.017	1100
778.068	1078
778.12	1062
778.171	1096
778.222	1086
778.273	1090
778.324	1078
778.375	1064
778.426	1056
778.477	1062
778.529	1046
778.58	1088
778.631	1088
778.682	1042
778.733	1096
778.784	1092
778.835	1098
778.886	1046
778.938	1046
778.989	1060
779.04	1110
779.091	1098
779.142	1068
779.193	1048
779.244	1068
779.295	1066
779.347	1058
779.398	1078
779.449	1046
779.5	1068
779.551	1072
779.602	1068
779.653	1064
779.704	1068
779.755	1040
779.807	1058
779.858	1062
779.909	1068
779.96	1036
780.011	1054
780.062	1018
780.113	1020
780.164	1056
780.216	1016
780.267	1028
780.318	1032
780.369	1044
780.42	1072
780.471	970
780.522	1046
780.573	1010
780.624	1032
780.675	1010
780.727	1018
780.778	1024
780.829	1022
780.88	1010
780.931	1024
780.982	1006
781.033	976
781.084	1014
781.135	992
781.187	994
781.238	1012
781.289	1004
781.34	998
781.391	1004
781.442	996
781.493	998
781.544	1004
781.595	972
781.646	970
781.698	946
781.749	1006
781.8	1002
781.851	994
781.902	1014
781.953	990
782.004	962
782.055	968
782.106	974
782.157	962
782.208	988
782.26	968
782.311	984
782.362	996
782.413	952
782.464	990
782.515	958
782.566	960
782.617	916
782.668	970
782.719	960
782.77	952
782.821	948
782.872	970
782.924	924
782.975	942
783.026	934
783.077	942
783.128	958
783.179	956
783.23	934
783.281	950
783.332	966
783.383	934
783.434	920
783.485	960
783.536	928
783.588	952
783.639	936
783.69	946
783.741	912
783.792	908
783.843	914
783.894	924
783.945	896
783.996	932
784.047	922
784.098	932
784.149	922
784.2	924
784.252	920
784.303	910
784.354	928
784.405	918
784.456	898
784.507	930
784.558	902
784.609	894
784.66	908
784.711	894
784.762	884
784.813	924
784.864	890
784.915	904
784.966	876
785.017	892
785.068	924
785.12	884
785.171	904
785.222	906
785.273	890
785.324	896
785.375	866
785.426	896
785.477	894
785.528	852
785.579	852
785.63	854
785.681	874
785.732	902
785.783	894
785.834	908
785.885	870
785.936	862
785.987	856
786.038	824
786.089	864
786.141	880
786.192	870
786.243	888
786.294	844
786.345	866
786.396	844
786.447	840
786.498	858
786.549	842
786.6	832
786.651	840
786.702	868
786.753	860
786.804	840
786.855	842
786.906	844
786.957	836
787.008	830
787.059	822
787.11	822
787.161	856
787.212	838
787.263	824
787.314	830
787.365	826
787.416	800
787.467	844
787.518	834
787.57	852
787.621	834
787.672	812
787.723	832
787.774	814
787.825	818
787.876	788
787.927	814
787.978	808
788.029	842
788.08	822
788.131	842
788.182	824
788.233	826
788.284	806
788.335	786
788.386	810
788.437	796
788.488	780
788.539	784
788.59	816
788.641	804
788.692	808
788.743	778
788.794	774
788.845	780
788.896	782
788.947	806
788.998	806
789.049	772
789.1	798
789.151	798
789.202	776
789.253	778
789.304	774
789.355	790
789.406	780
789.457	796
789.508	794
789.559	776
789.61	772
789.661	776
789.712	766
789.763	762
789.814	784
789.865	792
789.916	770
789.967	764
790.018	768
790.069	780
790.12	746
790.171	760
790.222	752
790.273	768
790.324	768
790.375	766
790.426	764
790.477	766
790.528	782
790.579	752
790.63	752
790.681	772
790.732	742
790.783	752
790.834	758
790.885	768
790.936	736
790.987	758
791.038	738
791.089	718
791.14	750
791.191	754
791.242	742
791.293	728
791.344	746
791.395	744
791.446	740
791.497	752
791.548	750
791.599	722
791.65	716
791.701	722
791.752	742
791.803	710
791.854	728
791.905	744
791.956	728
792.007	726
792.058	722
792.109	720
792.16	734
792.211	722
792.262	708
792.313	726
792.363	698
792.414	718
792.465	680
792.516	700
792.567	730
792.618	704
792.669	744
792.72	712
792.771	726
792.822	690
792.873	698
792.924	672
792.975	698
793.026	698
793.077	694
793.128	706
793.179	706
793.23	706
793.281	688
793.332	706
793.383	694
793.434	688
793.485	702
793.536	682
793.587	680
793.638	718
793.689	708
793.74	688
793.79	690
793.841	704
793.892	692
793.943	694
793.994	686
794.045	694
794.096	676
794.147	654
794.198	668
794.249	678
794.3	678
794.351	666
794.402	668
794.453	688
794.504	674
794.555	666
794.606	686
794.657	664
794.708	652
794.758	698
794.809	678
794.86	670
794.911	674
794.962	664
795.013	658
795.064	666
795.115	660
795.166	668
795.217	662
795.268	644
795.319	648
795.37	656
795.421	648
795.472	634
795.523	634
795.573	646
795.624	644
795.675	648
795.726	650
795.777	622
795.828	664
795.879	642
795.93	656
795.981	594
796.032	638
796.083	628
796.134	644
796.185	638
796.236	650
796.286	644
796.337	648
796.388	632
796.439	612
796.49	620
796.541	616
796.592	602
796.643	628
796.694	606
796.745	610
796.796	630
796.847	614
796.897	634
796.948	612
796.999	610
797.05	620
797.101	618
797.152	618
797.203	600
797.254	618
797.305	602
797.356	618
797.407	618
797.458	616
797.508	618
797.559	604
797.61	602
797.661	628
797.712	590
797.763	594
797.814	610
797.865	618
797.916	618
797.967	604
798.018	598
798.068	598
798.119	578
798.17	594
798.221	594
798.272	570
798.323	596
798.374	602
798.425	582
798.476	598
798.526	578
798.577	588
798.628	604
798.679	566
798.73	584
798.781	572
798.832	564
798.883	602
798.934	574
798.984	582
799.035	604
799.086	590
799.137	564
799.188	582
799.239	570
799.29	580
799.341	586
799.392	576
799.443	606
799.493	576
799.544	580
799.595	576
799.646	588
799.697	552
799.748	562
799.799	596
799.85	584
799.9	554
799.951	570
800.002	548
800.053	582
800.104	572
800.155	548
800.206	560
800.257	566
800.307	538
800.358	566
800.409	544
800.46	540
800.511	562
800.562	584
800.613	576
800.664	562
800.714	566
800.765	556
800.816	568
800.867	552
800.918	546
800.969	550
801.02	548
801.07	526
801.121	532
801.172	542
801.223	532
801.274	548
801.325	526
801.376	548
801.427	536
801.477	544
801.528	534
801.579	532
801.63	554
801.681	532
801.732	546
801.783	562
801.833	546
801.884	526
801.935	528
801.986	524
802.037	544
802.088	522
802.139	518
802.189	530
802.24	524
802.291	530
802.342	546
802.393	538
802.444	536
802.495	514
802.545	526
802.596	530
802.647	528
802.698	508
802.749	514
802.8	500
802.85	550
802.901	530
802.952	538
803.003	510
803.054	488
803.105	530
803.155	512
803.206	526
803.257	498
803.308	506
803.359	500
803.41	526
803.46	516
803.511	478
803.562	504
803.613	520
803.664	510
803.715	488
803.765	502
803.816	508
803.867	486
803.918	474
803.969	502
804.02	502
804.07	510
804.121	506
804.172	488
804.223	502
804.274	482
804.325	514
804.375	500
804.426	494
804.477	490
804.528	504
804.579	506
804.63	476
804.68	456
804.731	504
804.782	506
804.833	498
804.884	490
804.934	476
804.985	478
805.036	490
805.087	498
805.138	476
805.188	482
805.239	514
805.29	464
805.341	468
805.392	484
805.443	496
805.493	464.084
805.544	464.301
805.595	478.1
805.646	480.084
805.697	488.011
805.747	487.552
805.798	490.426
805.849	488.378
805.9	454.383
805.951	483.144
806.001	450.473
806.052	453.225
806.103	468.909
806.154	486.097
806.205	464.238
806.255	469.434
806.306	491.238
806.357	474.472
806.408	461.766
806.459	473.724
806.509	473.484
806.56	490.342
806.611	478.912
806.662	466.925
806.713	466.68
806.763	469.158
806.814	447.381
806.865	447.4
806.916	468.858
806.967	471.153
807.017	457.603
807.068	453.081
807.119	449.314
807.17	450.002
807.22	461.579
807.271	451.55
807.322	454.789
807.373	480.747
807.424	450.683
807.474	452.459
807.525	450.776
807.576	447.287
807.627	453.726
807.678	441.277
807.728	445.589
807.779	449.649
807.83	448.356
807.881	451.177
807.931	455.385
807.982	438.711
808.033	458.812
808.084	455.952
808.135	429.784
808.185	441.097
808.236	450.386
808.287	461.03
808.338	454.943
808.388	442.566
808.439	435.099
808.49	441.412
808.541	440.666
808.591	440.309
808.642	437.531
808.693	429.059
808.744	435.956
808.795	429.431
808.845	431.384
808.896	437.217
808.947	439.149
808.998	434.995
809.048	431.364
809.099	417.042
809.15	430.628
809.201	427.198
809.251	431.979
809.302	422.808
809.353	413.484
809.404	426.992
809.454	422.198
809.505	421.136
809.556	435.371
809.607	420.153
809.658	438.624
809.708	421.3
809.759	431.289
809.81	422.778
809.861	427.007
809.911	404.386
809.962	441.005
810.013	420.728
810.064	424
810.114	422.765
810.165	414.105
810.216	417.952
810.267	398.91
810.317	411.581
810.368	419.645
810.419	417.891
810.469	404.173
810.52	415.33
810.571	424.916
810.622	427.766
810.627	428
810.678	380
810.729	396
810.78	404
810.831	408
810.882	404
810.933	414
810.984	430
811.035	422
811.086	408
811.137	410
811.188	428
811.239	408
811.29	406
811.341	388
811.392	414
811.443	412
811.494	382
811.545	420
811.596	402
811.648	388
811.699	412
811.75	382
811.801	420
811.852	394
811.903	390
811.954	406
812.005	390
812.056	382
812.107	372
812.158	394
812.209	408
812.26	404
812.311	404
812.362	402
812.413	396
812.464	382
812.515	384
812.566	392
812.617	380
812.668	382
812.719	408
812.77	398
812.821	380
812.872	398
812.923	402
812.974	382
813.025	412
813.076	390
813.127	380
813.178	386
813.229	378
813.28	384
813.331	378
813.382	392
813.433	372
813.484	382
813.535	376
813.586	348
813.637	382
813.688	394
813.739	390
813.79	388
813.841	366
813.892	390
813.943	358
813.994	372
814.045	356
814.096	376
814.147	382
814.198	370
814.249	394
814.3	368
814.351	374
814.402	368
814.453	368
814.504	344
814.555	370
814.606	358
814.657	382
814.708	378
814.759	358
814.81	360
814.861	374
814.912	380
814.963	370
815.014	358
815.065	380
815.116	366
815.167	358
815.217	362
815.268	368
815.319	356
815.37	342
815.421	342
815.472	348
815.523	368
815.574	358
815.625	360
815.676	340
815.727	362
815.778	356
815.829	366
815.88	372
815.931	348
815.982	352
816.033	354
816.084	376
816.135	356
816.186	346
816.237	336
816.288	354
816.339	352
816.39	348
816.441	348
816.492	358
816.543	358
816.594	360
816.645	342
816.696	318
816.747	362
816.798	364
816.849	332
816.9	338
816.951	340
817.001	344
817.052	332
817.103	358
817.154	348
817.205	340
817.256	346
817.307	358
817.358	356
817.409	342
817.46	324
817.511	358
817.562	338
817.613	344
817.664	324
817.715	358
817.766	332
817.817	344
817.868	342
817.919	356
817.97	338
818.021	328
818.071	340
818.122	334
818.173	344
818.224	342
818.275	332
818.326	344
818.377	334
818.428	328
818.479	340
818.53	328
818.581	338
818.632	320
818.683	328
818.734	322
818.785	312
818.836	336
818.887	334
818.938	326
818.988	330
819.039	320
819.09	336
819.141	328
819.192	332
819.243	328
819.294	348
819.345	330
819.396	324
819.447	322
819.498	324
819.549	336
819.6	300
819.651	300
819.702	362
819.753	324
819.803	320
819.854	322
819.905	332
819.956	312
820.007	322
820.058	310
820.109	324
820.16	318
820.211	282
820.262	314
820.313	332
820.364	310
820.415	334
820.465	306
820.516	322
820.567	322
820.618	330
820.669	304
820.72	304
820.771	308
820.822	312
820.873	326
820.924	318
820.975	306
821.026	318
821.076	306
821.127	304
821.178	316
821.229	302
821.28	292
821.331	304
821.382	312
821.433	308
821.484	320
821.535	296
821.586	312
821.637	294
821.687	288
821.738	306
821.789	290
821.84	284
821.891	308
821.942	310
821.993	290
822.044	324
822.095	298
822.146	296
822.196	296
822.247	290
822.298	292
822.349	302
822.4	278
822.451	304
822.502	302
822.553	306
822.604	298
822.655	276
822.706	262
822.756	282
822.807	290
822.858	306
822.909	298
822.96	292
823.011	270
823.062	288
823.113	286
823.164	292
823.214	280
823.265	302
823.316	286
823.367	278
823.418	284
823.469	282
823.52	284
823.571	288
823.622	296
823.672	292
823.723	286
823.774	286
823.825	274
823.876	278
823.927	282
823.978	300
824.029	290
824.08	282
824.13	292
824.181	286
824.232	278
824.283	266
824.334	292
824.385	276
824.436	274
824.487	288
824.537	286
824.588	282
824.639	288
824.69	278
824.741	288
824.792	274
824.843	300
824.893	274
824.944	292
824.995	290
825.046	282
825.097	278
825.148	292
825.199	270
825.25	268
825.3	274
825.351	266
825.402	268
825.453	260
825.504	282
825.555	268
825.606	270
825.657	276
825.707	286
825.758	270
825.809	276
825.86	278
825.911	264
825.962	270
826.013	260
826.063	258
826.114	288
826.165	264
826.216	266
826.267	260
826.318	274
826.369	242
826.419	266
826.47	264
826.521	262
826.572	270
826.623	266
826.674	264
826.725	246
826.775	274
826.826	252
826.877	262
826.928	260
826.979	248
827.03	258
827.08	270
827.131	262
827.182	268
827.233	270
827.284	272
827.335	250
827.386	262
827.436	262
827.487	268
827.538	252
827.589	250
827.64	260
827.691	248
827.741	246
827.792	262
827.843	262
827.894	238
827.945	256
827.996	266
828.046	252
828.097	270
828.148	250
828.199	256
828.25	260
828.301	260
828.351	242
828.402	260
828.453	248
828.504	266
828.555	248
828.606	262
828.656	258
828.707	260
828.758	250
828.809	262
828.86	242
828.911	254
828.961	252
829.012	260
829.063	274
829.114	254
829.165	240
829.216	256
829.266	246
829.317	232
829.368	236
829.419	244
829.47	256
829.52	262
829.571	242
829.622	252
829.673	228
829.724	246
829.774	254
829.825	264
829.876	258
829.927	240
829.978	236
830.029	254
830.079	252
830.13	238
830.181	260
830.232	246
830.283	236
830.333	242
830.384	244
830.435	230
830.486	236
830.537	224
830.587	258
830.638	260
830.689	232
830.74	218
830.791	246
830.841	250
830.892	238
830.943	216
830.994	234
831.045	248
831.095	236
831.146	246
831.197	228
831.248	260
831.299	238
831.349	232
831.4	252
831.451	244
831.502	242
831.553	248
831.603	222
831.654	248
831.705	228
831.756	238
831.807	254
831.857	244
831.908	226
831.959	238
832.01	248
832.061	230
832.111	238
832.162	228
832.213	254
832.264	234
832.315	220
832.365	220
832.416	236
832.467	228
832.518	224
832.568	226
832.619	230
832.67	230
832.721	234
832.772	224
832.822	232
832.873	216
832.924	228
832.975	240
833.025	224
833.076	228
833.127	208
833.178	222
833.229	230
833.279	232
833.33	228
833.381	218
833.432	208
833.482	236
833.533	224
833.584	228
833.635	224
833.685	198
833.736	232
833.787	228
833.838	228
833.889	214
833.939	218
833.99	220
834.041	230
834.092	214
834.142	218
834.193	212
834.244	224
834.295	214
834.345	222
834.396	230
834.447	214
834.498	210
834.548	218
834.599	232
834.65	232
834.701	198
834.751	216
834.802	214
834.853	220
834.904	200
834.954	220
835.005	220
835.056	206
835.107	216
835.157	224
835.208	214
835.259	204
835.31	220
835.36	228
835.411	210
835.462	206
835.513	222
835.563	222
835.614	208
835.665	210
835.716	212
835.766	220
835.817	204
835.868	214
835.919	222
835.969	216
836.02	212
836.071	202
836.122	228
836.172	214
836.223	214
836.274	202
836.325	208
836.375	208
836.426	204
836.477	214
836.528	212
836.578	218
836.629	222
836.68	216
836.73	210
836.781	204
836.832	198
836.883	216
836.933	202
836.984	194
837.035	210
837.086	198
837.136	214
837.187	212
837.238	194
837.288	204
837.339	208
837.39	224
837.441	200
837.491	222
837.542	196
837.593	216
837.643	202
837.694	204
837.745	202
837.796	212
837.846	202
837.897	216
837.948	200
837.999	194
838.049	210
838.1	192
838.151	208
838.201	194
838.252	206
838.303	212
838.354	218
838.404	204
838.455	196
838.506	186
838.556	208
838.607	196
838.658	178
838.708	202
838.759	188
838.81	180
838.861	196
838.911	192
838.962	200
839.013	192
839.063	186
839.114	186
839.165	196
839.216	198
839.266	192
839.317	192
839.368	204
839.418	184
839.469	188
839.52	204
839.57	198
839.621	192
839.672	194
839.722	194
839.773	196
839.824	192
839.875	196
839.925	186
839.976	194
840.027	198
840.077	194
840.128	190
840.179	194
840.229	188
840.28	194
840.331	192
840.381	190
840.432	182
840.483	188
840.534	196
840.584	180
840.635	182
840.686	178
840.736	192
840.787	186
840.838	194
840.888	196
840.939	190
840.99	180
841.04	194
841.091	192
841.142	192
841.192	172
841.243	192
841.294	198
841.344	192
841.395	182
841.446	194
841.496	182
841.547	192
841.598	190
841.648	190
841.699	182
841.75	188
841.8	176
841.851	172
841.902	186
841.952	194
842.003	180
842.054	170
842.104	196
842.155	174
842.206	168
842.256	198
842.307	184
842.358	184
842.408	170
842.459	180
842.51	170
842.56	174
842.611	166
842.662	186
842.712	178
842.763	178
842.814	184
842.864	184
842.915	194
842.966	184
843.016	184
843.067	168
843.118	182
843.168	176
843.219	174
843.269	182
843.32	186
843.371	190
843.421	194
843.472	186
843.523	178
843.573	172
843.624	200
843.675	170
843.725	174
843.776	182
843.827	180
843.877	184
843.928	154
843.979	186
844.029	190
844.08	186
844.13	158
844.181	164
844.232	178
844.282	174
844.333	180
844.384	176
844.434	168
844.485	198
844.536	170
844.586	182
844.637	178
844.687	174
844.738	176
844.789	188
844.839	172
844.89	168
844.941	176
844.991	168
845.042	172
845.092	182
845.143	162
845.194	186
845.244	176
845.295	182
845.346	158
845.396	168
845.447	164
845.497	178
845.548	172
845.599	186
845.649	186
845.7	170
845.75	164
845.801	164
845.852	168
845.902	176
845.953	170
846.004	174
846.054	174
846.105	162
846.155	166
846.206	168
846.257	166
846.307	180
846.358	172
846.409	174
846.459	170
846.51	166
846.56	168
846.611	170
846.661	164
846.712	162
846.763	164
846.813	156
846.864	174
846.915	158
846.965	154
847.016	168
847.066	164
847.117	160
847.168	172
847.218	172
847.269	164
847.319	156
847.37	172
847.421	158
847.471	168
847.522	156
847.572	166
847.623	162
847.674	166
847.724	152
847.775	168
847.825	158
847.876	172
847.926	168
847.977	160
848.028	152
848.078	156
848.129	148
848.179	162
848.23	160
848.281	154
848.331	158
848.382	164
848.432	176
848.483	164
848.534	152
848.584	160
848.635	176
848.685	150
848.736	162
848.786	168
848.837	166
848.888	150
848.938	148
848.989	150
849.039	154
849.09	158
849.14	150
849.191	158
849.242	150
849.292	156
849.343	150
849.393	160
849.444	164
849.494	146
849.545	164
849.596	150
849.646	144
849.697	158
849.747	156
849.798	160
849.848	166
849.899	150
849.95	150
850	156
850.051	144
850.101	142
850.152	158
850.202	160
850.253	144
850.303	158
850.354	158
850.405	162
850.455	142
850.506	152
850.556	152
850.607	156
850.657	126
850.708	146
850.758	158
850.809	156
850.86	142
850.91	156
850.961	150
851.011	148
851.062	138
851.112	148
851.163	142
851.213	152
851.264	130
851.314	148
851.365	162
851.416	154
851.466	138
851.517	158
851.567	146
851.618	150
851.668	138
851.719	140
851.769	142
851.82	150
851.87	162
851.921	154
851.971	144
852.022	146
852.073	134
852.123	138
852.174	142
852.224	142
852.275	152
852.325	137.991
852.376	145.914
852.426	136.349
852.477	147.996
852.527	146.688
852.578	146.11
852.628	125.43
852.679	149.254
852.729	147.32
852.78	138.19
852.831	137.391
852.881	146.185
852.932	132.081
852.982	149.382
853.033	142.758
853.083	143.517
853.134	136.466
853.184	157.8
853.235	138.688
853.285	149.329
853.336	143.146
853.386	139.608
853.437	142.813
853.487	143.974
853.538	139.379
853.588	139.887
853.639	130.646
853.689	134.819
853.74	136.933
853.79	128.871
853.841	135.135
853.891	150.575
853.942	137.679
853.992	138.66
854.043	140.672
854.093	140
854.144	135.045
854.194	138.25
854.245	139.405
854.295	139.63
854.346	133.17
854.396	140.809
854.447	144
854.497	139.005
854.548	132.109
854.598	127.934
854.649	137.938
854.699	143.725
854.75	137.002
854.8	135.01
854.851	133.718
854.901	123.638
854.952	137.503
855.002	141.897
855.053	139.758
855.103	132.22
855.154	135.542
855.204	138.339
855.255	136.36
855.305	138.067
855.356	141.833
855.406	135.373
855.457	133.155
855.507	132.692
855.558	130.425
855.608	132.69
855.659	137.954
855.709	133.877
855.76	131.853
855.81	131.809
855.861	134.752
855.911	133.25
855.962	130.484
856.012	130.117
856.063	133.454
856.113	132.145
856.164	130.701
856.214	132.837
856.265	138.041
856.315	133.665
856.366	129.311
856.416	125.939
856.467	129.295
856.517	130.028
856.568	126.787
856.618	129.45
856.668	125.91
856.719	122.428
856.769	125.953
856.82	132.21
856.87	123.45
856.921	128.355
856.971	133.859
857.022	131.301
857.072	125.659
857.123	118.48
857.173	127.216
857.224	133.9
857.274	124.693
857.325	123.281
857.352	134
857.403	122
857.453	126
857.504	110
857.555	138
857.606	138
857.656	126
857.707	124
857.758	126
857.809	130
857.859	136
857.91	112
857.961	130
858.012	144
858.063	130
858.113	112
858.164	114
858.215	126
858.266	130
858.316	118
858.367	132
858.418	132
858.469	124
858.519	120
858.57	132
858.621	128
858.672	122
858.722	124
858.773	134
858.824	124
858.875	120
858.925	114
858.976	128
859.027	130
859.078	128
859.128	118
859.179	128
859.23	132
859.281	124
859.331	132
859.382	136
859.433	114
859.483	122
859.534	122
859.585	140
859.636	122
859.686	106
859.737	116
859.788	124
859.839	122
859.889	104
859.94	130
859.991	124
860.042	124
860.092	108
860.143	120
860.194	128
860.245	122
860.295	122
860.346	128
860.397	118
860.447	116
860.498	118
860.549	120
860.6	124
860.65	134
860.701	120
860.752	134
860.802	128
860.853	116
860.904	120
860.955	114
861.005	120
861.056	114
861.107	114
861.158	120
861.208	114
861.259	108
861.31	114
861.36	130
861.411	130
861.462	120
861.513	120
861.563	136
861.614	140
861.665	118
861.715	120
861.766	114
861.817	124
861.868	112
861.918	112
861.969	118
862.02	124
862.07	112
862.121	114
862.172	122
862.223	114
862.273	112
862.324	120
862.375	122
862.425	116
862.476	106
862.527	122
862.577	112
862.628	110
862.679	118
862.73	112
862.78	126
862.831	108
862.882	118
862.932	118
862.983	120
863.034	100
863.084	108
863.135	112
863.186	112
863.237	112
863.287	122
863.338	120
863.389	118
863.439	124
863.49	118
863.541	106
863.591	114
863.642	118
863.693	122
863.744	122
863.794	122
863.845	100
863.896	116
863.946	118
863.997	126
864.048	100
864.098	118
864.149	114
864.2	116
864.25	110
864.301	104
864.352	112
864.402	110
864.453	104
864.504	108
864.555	116
864.605	98
864.656	114
864.707	118
864.757	120
864.808	112
864.859	118
864.909	120
864.96	106
865.011	116
865.061	110
865.112	118
865.163	122
865.213	112
865.264	112
865.315	114
865.365	102
865.416	100
865.467	116
865.517	106
865.568	118
865.619	100
865.669	110
865.72	108
865.771	112
865.821	110
865.872	106
865.923	112
865.973	108
866.024	106
866.075	112
866.125	112
866.176	108
866.227	108
866.277	112
866.328	104
866.379	114
866.429	98
866.48	110
866.531	110
866.581	104
866.632	106
866.683	108
866.733	110
866.784	94
866.835	114
866.885	108
866.936	108
866.987	106
867.037	114
867.088	116
867.138	114
867.189	110
867.24	108
867.29	116
867.341	104
867.392	96
867.442	112
867.493	112
867.544	98
867.594	94
867.645	104
867.696	118
867.746	110
867.797	110
867.848	106
867.898	122
867.949	116
867.999	102
868.05	100
868.101	94
868.151	110
868.202	100
868.253	100
868.303	94
868.354	102
868.405	86
868.455	112
868.506	106
868.556	98
868.607	104
868.658	104
868.708	106
868.759	104
868.81	102
868.86	112
868.911	98
868.961	98
869.012	104
869.063	104
869.113	110
869.164	94
869.215	100
869.265	108
869.316	112
869.367	100
869.417	104
869.468	108
869.518	102
869.569	108
869.62	104
869.67	98
869.721	106
869.771	96
869.822	108
869.873	106
869.923	102
869.974	108
870.025	102
870.075	96
870.126	104
870.176	98
870.227	114
870.278	106
870.328	100
870.379	104
870.43	108
870.48	116
870.531	100
870.581	100
870.632	96
870.683	94
870.733	92
870.784	104
870.834	100
870.885	96
870.936	100
870.986	96
871.037	104
871.087	102
871.138	96
871.189	102
871.239	108
871.29	106
871.34	94
871.391	102
871.442	98
871.492	104
871.543	92
871.593	106
871.644	108
871.695	100
871.745	102
871.796	110
871.846	98
871.897	84
871.948	94
871.998	82
872.049	96
872.099	96
872.15	98
872.201	104
872.251	88
872.302	92
872.352	98
872.403	90
872.453	98
872.504	90
872.555	90
872.605	102
872.656	102
872.706	94
872.757	102
872.808	94
872.858	94
872.909	90
872.959	90
873.01	100
873.06	86
873.111	96
873.162	100
873.212	84
873.263	106
873.313	92
873.364	92
873.415	82
873.465	98
873.516	92
873.566	80
873.617	90
873.667	92
873.718	92
873.769	102
873.819	98
873.87	102
873.92	96
873.971	100
874.021	102
874.072	94
874.123	100
874.173	106
874.224	96
874.274	86
874.325	94
874.375	96
874.426	78
874.477	84
874.527	94
874.578	88
874.628	98
874.679	82
874.729	100
874.78	96
874.83	96
874.881	80
874.932	98
874.982	82
875.033	96
875.083	74
875.134	96
875.184	98
875.235	86
875.285	88
875.336	82
875.387	84
875.437	94
875.488	86
875.538	94
875.589	94
875.639	96
875.69	78
875.74	98
875.791	92
875.841	90
875.892	100
875.943	86
875.993	100
876.044	88
876.094	90
876.145	84
876.195	88
876.246	84
876.296	98
876.347	78
876.397	86
876.448	84
876.499	74
876.549	96
876.6	94
876.65	84
876.701	96
876.751	98
876.802	90
876.852	82
876.903	88
876.953	84
877.004	88
877.054	86
877.105	84
877.155	96
877.206	90
877.257	96
877.307	100
877.358	94
877.408	94
877.459	92
877.509	96
877.56	94
877.61	84
877.661	94
877.711	94
877.762	96
877.812	80
877.863	76
877.913	92
877.964	100
878.014	82
878.065	82
878.115	96
878.166	92
878.216	86
878.267	78
878.318	80
878.368	92
878.419	80
878.469	88
878.52	82
878.57	84
878.621	82
878.671	84
878.722	88
878.772	90
878.823	80
878.873	104
878.924	82
878.974	90
879.025	84
879.075	86
879.126	92
879.176	82
879.227	90
879.277	82
879.328	86
879.378	86
879.429	82
879.479	90
879.53	90
879.58	88
879.631	88
879.681	84
879.732	78
879.782	90
879.833	80
879.883	94
879.934	100
879.984	70
880.035	86
880.085	96
880.136	84
880.186	76
880.237	84
880.287	90
880.338	80
880.388	86
880.439	92
880.489	82
880.54	84
880.59	92
880.641	84
880.691	86
880.742	94
880.792	78
880.842	76
880.893	84
880.943	90
880.994	78
881.044	88
881.095	82
881.145	80
881.196	70
881.246	86
881.297	90
881.347	76
881.398	74
881.448	86
881.499	90
881.549	90
881.6	78
881.65	88
881.701	86
881.751	84
881.802	72
881.852	88
881.902	82
881.953	84
882.003	82
882.054	84
882.104	90
882.155	88
882.205	74
882.256	80
882.306	76
882.357	84
882.407	82
882.458	88
882.508	90
882.559	70
882.609	78
882.659	76
882.71	74
882.76	78
882.811	78
882.861	78
882.912	84
882.962	80
883.013	90
883.063	86
883.114	78
883.164	68
883.214	84
883.265	74
883.315	78
883.366	82
883.416	82
883.467	70
883.517	76
883.568	68
883.618	86
883.669	82
883.719	74
883.769	74
883.82	82
883.87	94
883.921	80
883.971	82
884.022	82
884.072	82
884.123	80
884.173	88
884.223	92
884.274	90
884.324	78
884.375	84
884.425	82
884.476	78
884.526	80
884.577	78
884.627	80
884.677	76
884.728	76
884.778	78
884.829	86
884.879	72
884.93	84
884.98	74
885.03	80
885.081	72
885.131	72
885.182	78
885.232	78
885.283	82
885.333	76
885.383	76
885.434	80
885.484	76
885.535	66
885.585	84
885.635	66
885.686	80
885.736	72
885.787	76
885.837	82
885.888	76
885.938	68
885.988	84
886.039	82
886.089	70
886.14	72
886.19	82
886.241	82
886.291	76
886.341	76
886.392	76
886.442	78
886.493	66
886.543	78
886.593	78
886.644	84
886.694	66
886.745	72
886.795	86
886.845	82
886.896	74
886.946	82
886.997	68
887.047	78
887.097	62
887.148	78
887.198	78
887.249	80
887.299	64
887.349	68
887.4	74
887.45	76
887.501	70
887.551	76
887.602	74
887.652	78
887.702	62
887.753	78
887.803	70
887.853	70
887.904	48
887.954	76
888.005	64
888.055	68
888.105	64
888.156	76
888.206	68
888.257	66
888.307	70
888.357	80
888.408	72
888.458	68
888.509	70
888.559	68
888.609	78
888.66	60
888.71	70
888.76	86
888.811	72
888.861	70
888.912	78
888.962	72
889.012	68
889.063	68
889.113	78
889.163	84
889.214	66
889.264	74
889.315	68
889.365	66
889.415	66
889.466	68
889.516	72
889.566	72
889.617	62
889.667	56
889.718	76
889.768	70
889.818	72
889.869	70
889.919	68
889.969	84
890.02	76
890.07	68
890.12	60
890.171	68
890.221	78
890.272	76
890.322	70
890.372	82
890.423	68
890.473	62
890.523	74
890.574	74
890.624	76
890.674	66
890.725	74
890.775	62
890.826	70
890.876	74
890.926	82
890.977	68
891.027	72
891.077	74
891.128	68
891.178	74
891.228	78
891.279	84
891.329	62
891.379	76
891.43	70
891.48	58
891.53	68
891.581	66
891.631	62
891.681	72
891.732	66
891.782	60
891.832	72
891.883	60
891.933	72
891.983	58
892.034	60
892.084	58
892.134	64
892.185	68
892.235	68
892.286	72
892.336	70
892.386	62
892.437	70
892.487	68
892.537	72
892.587	58
892.638	68
892.688	64
892.738	76
892.789	58
892.839	64
892.889	70
892.94	60
892.99	52
893.04	64
893.091	64
893.141	54
893.191	66
893.242	78
893.292	62
893.342	70
893.393	56
893.443	68
893.493	74
893.544	68
893.594	64
893.644	66
893.695	60
893.745	64
893.795	68
893.846	76
893.896	66
893.946	68
893.996	66
894.047	64
894.097	58
894.147	52
894.198	68
894.248	74
894.298	68
894.349	62
894.399	62
894.449	68
894.5	60
894.55	62
894.6	64
894.65	64
894.701	68
894.751	54
894.801	64
894.852	64
894.902	64
894.952	72
895.003	60
895.053	58
895.103	56
895.153	60
895.204	64
895.254	64
895.304	58
895.355	60
895.405	66
895.455	64
895.505	56
895.556	68
895.606	56
895.656	64
895.707	68
895.757	62
895.807	56
895.858	68
895.908	62
895.958	58
896.008	70
896.059	70
896.109	56
896.159	56
896.21	72
896.26	64
896.31	56
896.36	66
896.411	60
896.461	64
896.511	64
896.561	66
896.612	60
896.662	58
896.712	52
896.763	68
896.813	58
896.863	60
896.913	58
896.964	54
897.014	66
897.064	58
897.115	48
897.165	66
897.215	70
897.265	68
897.316	58
897.366	62
897.416	62
897.466	60
897.517	52
897.567	60
897.617	66
897.667	60
897.718	50
897.768	66
897.818	64
897.868	68
897.919	64
897.969	62
898.019	56
898.069	62
898.12	52
898.17	64
898.22	60
898.27	52
898.321	52
898.371	48
898.421	68
898.471	56
898.522	56
898.572	58
898.622	52
898.672	54
898.723	68
898.773	62
898.823	72
898.873	58
898.924	58
898.974	60
899.024	58
899.074	54
899.125	55
899.175	56
899.225	58
899.275	44
899.326	68
899.376	60
899.426	52
899.476	54
899.527	62
899.577	74
899.627	56
899.677	60
899.728	56
899.778	58
899.828	58
899.878	60
899.928	50
899.979	64
