#Acq. time (s)=	5
#Accumulations=	2
#Range (nm)=	520...900
#Windows=	8
#Auto scanning=	Off
#Autofocus=	Off
#AutoExposure=	Off
#Spike filter=	Multiple accum.
#Delay time (s)=	0
#Binning=	1
#Readout mode=	Signal
#DeNoise=	Off
#ICS correction=	Off
#Dark correction=	Off
#Inst. Process=	Off
#Detector temperature (°C)=	-59.98
#Instrument=	LabRAM HR Evol
#Detector=	Syncerity OE
#Objective=	x50_VIS
#Grating=	600 (500nm)
#ND Filter=	10%
#Laser=	514nm_Edge
#Hole=	199.981
#Range=	Auto
#StageXY=	Marzhauser
#StageZ=	Marzhauser
#X (µm)=	-19162.1
#Y (µm)=	12273.3
#Z (µm)=	-106.8
#Full time(mm:ss)=	2:04
#Project=	
#Sample=	
#Site=	
#Title=	MS_091025
#Remark=	
#Date=	13.10.2023 16:36
#Acquired=	13.10.2023 16:36:24
520.044	40
520.097	42
520.149	50
520.201	46
520.254	34
520.306	42
520.359	42
520.411	44
520.464	38
520.516	56
520.569	44
520.621	44
520.674	46
520.726	48
520.778	44
520.831	38
520.883	46
520.936	50
520.988	44
521.041	34
521.093	44
521.146	46
521.198	46
521.25	36
521.303	50
521.355	50
521.408	48
521.46	40
521.513	50
521.565	50
521.617	48
521.67	38
521.722	46
521.775	44
521.827	42
521.88	40
521.932	48
521.984	50
522.037	48
522.089	40
522.142	46
522.194	52
522.247	46
522.299	46
522.352	52
522.404	48
522.456	40
522.509	50
522.561	46
522.614	50
522.666	40
522.719	46
522.771	52
522.823	46
522.876	44
522.928	36
522.981	46
523.033	54
523.086	36
523.138	38
523.19	50
523.243	42
523.295	36
523.348	50
523.4	50
523.453	50
523.505	42
523.557	48
523.61	48
523.662	34
523.715	34
523.767	52
523.82	46
523.872	42
523.924	38
523.977	38
524.029	44
524.082	54
524.134	50
524.186	54
524.239	52
524.291	52
524.344	54
524.396	44
524.449	50
524.501	38
524.553	46
524.606	54
524.658	50
524.711	44
524.763	44
524.815	52
524.868	50
524.92	46
524.973	50
525.025	50
525.078	42
525.13	48
525.182	50
525.235	52
525.287	56
525.34	44
525.392	50
525.444	44
525.497	42
525.549	42
525.602	54
525.654	46
525.706	44
525.759	44
525.811	52
525.864	54
525.916	50
525.969	48
526.021	52
526.073	40
526.126	52
526.178	42
526.231	50
526.283	54
526.335	50
526.388	46
526.44	58
526.493	44
526.545	44
526.597	48
526.65	52
526.702	56
526.755	46
526.807	46
526.859	60
526.912	52
526.964	40
527.017	52
527.069	54
527.121	52
527.174	52
527.226	52
527.279	48
527.331	54
527.383	52
527.436	52
527.488	48
527.54	58
527.593	46
527.645	56
527.698	56
527.75	46
527.802	42
527.855	50
527.907	54
527.96	58
528.012	54
528.064	58
528.117	54
528.169	50
528.222	46
528.274	58
528.326	50
528.379	40
528.431	54
528.484	56
528.536	62
528.588	56
528.641	44
528.693	58
528.745	52
528.798	56
528.85	48
528.903	58
528.955	64
529.007	52
529.06	54
529.112	50
529.164	56
529.217	38
529.269	56
529.322	54
529.374	52
529.426	60
529.479	58
529.531	56
529.584	52
529.636	44
529.688	54
529.741	50
529.793	56
529.845	54
529.898	58
529.95	62
530.003	52
530.055	58
530.107	58
530.16	58
530.212	50
530.264	48
530.317	58
530.369	64
530.422	52
530.474	56
530.526	62
530.579	58
530.631	62
530.683	56
530.736	62
530.788	52
530.841	50
530.893	54
530.945	58
530.998	56
531.05	48
531.102	54
531.155	58
531.207	68
531.259	52
531.312	60
531.364	60
531.417	56
531.469	54
531.521	56
531.574	58
531.626	60
531.678	52
531.731	54
531.783	58
531.835	58
531.888	52
531.94	66
531.992	54
532.045	70
532.097	52
532.15	56
532.202	62
532.254	60
532.307	60
532.359	64
532.411	56
532.464	62
532.516	54
532.568	68
532.621	72
532.673	56
532.726	58
532.778	52
532.83	58
532.883	58
532.935	54
532.987	62
533.04	60
533.092	56
533.144	52
533.197	64
533.249	72
533.301	66
533.354	58
533.406	54
533.458	58
533.511	58
533.563	58
533.615	70
533.668	68
533.72	60
533.773	64
533.825	62
533.877	62
533.93	54
533.982	66
534.034	52
534.087	64
534.139	58
534.191	76
534.244	72
534.296	74
534.348	56
534.401	68
534.453	72
534.505	58
534.558	62
534.61	68
534.662	68
534.715	74
534.767	66
534.819	70
534.872	70
534.924	66
534.976	68
535.029	76
535.081	66
535.133	60
535.186	70
535.238	72
535.29	78
535.343	66
535.395	72
535.447	68
535.5	70
535.552	64
535.604	74
535.657	68
535.709	74
535.761	68
535.814	76
535.866	66
535.918	76
535.971	64
536.023	74
536.075	64
536.128	68
536.18	60
536.232	74
536.285	70
536.337	64
536.389	58
536.442	72
536.494	64
536.546	58
536.599	64
536.651	76
536.703	66
536.755	64
536.808	60
536.86	82
536.912	62
536.965	60
537.017	74
537.069	60
537.122	78
537.174	68
537.226	70
537.279	76
537.331	82
537.383	58
537.436	70
537.488	72
537.54	70
537.593	74
537.645	66
537.697	72
537.75	72
537.802	66
537.854	78
537.906	74
537.959	84
538.011	80
538.063	74
538.116	80
538.168	70
538.22	72
538.273	82
538.325	66
538.377	72
538.43	74
538.482	78
538.534	78
538.586	82
538.639	72
538.691	86
538.743	72
538.796	70
538.848	70
538.9	80
538.953	78
539.005	78
539.057	80
539.109	80
539.162	78
539.214	84
539.266	76
539.319	72
539.371	84
539.423	72
539.476	90
539.528	90
539.58	84
539.633	74
539.685	76
539.737	90
539.789	90
539.842	74
539.894	78
539.946	84
539.999	90
540.051	76
540.103	86
540.155	80
540.208	86
540.26	72
540.312	82
540.365	84
540.417	82
540.469	76
540.521	88
540.574	86
540.626	82
540.678	82
540.731	84
540.783	90
540.835	78
540.888	82
540.94	92
540.992	86
541.044	82
541.097	84
541.149	84
541.201	92
541.254	78
541.306	90
541.358	96
541.41	80
541.463	84
541.515	96
541.567	90
541.62	94
541.672	82
541.724	84
541.776	92
541.829	92
541.881	86
541.933	92
541.985	94
542.038	86
542.09	84
542.142	96
542.195	100
542.247	88
542.299	76
542.351	100
542.404	82
542.456	92
542.508	80
542.56	92
542.613	100
542.665	90
542.717	90
542.77	94
542.822	82
542.874	92
542.926	94
542.979	92
543.031	104
543.083	104
543.135	96
543.188	104
543.24	106
543.292	98
543.344	108
543.397	110
543.449	102
543.501	94
543.554	106
543.606	104
543.658	92
543.71	100
543.763	104
543.815	106
543.867	106
543.919	108
543.972	102
544.024	106
544.076	96
544.128	102
544.181	114
544.233	110
544.285	122
544.337	110
544.39	106
544.442	116
544.494	108
544.547	104
544.599	122
544.651	106
544.703	104
544.755	108
544.808	102
544.86	106
544.912	102
544.965	102
545.017	118
545.069	122
545.121	108
545.174	106
545.226	110
545.278	116
545.33	108
545.383	110
545.435	108
545.487	108
545.539	108
545.591	94
545.644	112
545.696	122
545.748	110
545.8	112
545.853	120
545.905	126
545.957	112
546.009	134
546.062	122
546.114	134
546.166	106
546.218	112
546.271	124
546.323	122
546.375	112
546.427	128
546.48	116
546.532	130
546.584	128
546.636	132
546.689	122
546.741	128
546.793	128
546.845	136
546.898	124
546.95	122
547.002	122
547.054	126
547.106	124
547.159	144
547.211	126
547.263	144
547.315	142
547.368	122
547.42	134
547.472	132
547.524	146
547.577	144
547.629	138
547.681	138
547.733	136
547.785	134
547.838	158
547.89	140
547.942	150
547.994	138
548.047	134
548.099	138
548.151	156
548.203	128
548.255	156
548.308	146
548.36	154
548.412	132
548.464	154
548.517	140
548.569	146
548.621	150
548.673	140
548.725	152
548.778	144
548.83	132
548.882	146
548.934	156
548.987	148
549.039	144
549.091	154
549.143	160
549.195	148
549.248	144
549.3	162
549.352	160
549.404	154
549.456	148
549.509	158
549.561	164
549.613	152
549.665	174
549.718	158
549.77	154
549.822	166
549.874	154
549.926	160
549.979	166
550.031	156
550.083	170
550.135	160
550.187	178
550.24	164
550.292	162
550.344	174
550.396	176
550.448	170
550.501	188
550.553	176
550.605	168
550.657	162
550.709	192
550.762	186
550.814	180
550.866	166
550.918	194
550.97	182
551.023	188
551.075	190
551.127	190
551.179	202
551.231	198
551.284	188
551.336	198
551.388	212
551.44	186
551.492	202
551.545	222
551.597	222
551.649	238
551.701	212
551.753	248
551.806	250
551.858	242
551.91	262
551.962	292
552.014	314
552.067	348
552.119	384
552.171	456
552.223	592
552.275	1070
552.327	2256
552.38	4546
552.432	8046
552.484	12544
552.536	15358
552.588	11440
552.641	5378
552.693	2066
552.745	928
552.797	590
552.849	438
552.901	386
552.954	344
553.006	312
553.058	294
553.11	280
553.162	272
553.215	246
553.267	252
553.319	252
553.371	244
553.423	254
553.475	228
553.528	232
553.58	224
553.632	238
553.684	230
553.736	238
553.788	218
553.841	242
553.893	216
553.945	240
553.997	236
554.049	230
554.102	220
554.154	220
554.206	226
554.258	238
554.31	234
554.362	236
554.414	236
554.467	230
554.519	236
554.571	234
554.623	250
554.675	240
554.727	224
554.78	232
554.832	232
554.884	228
554.936	236
554.988	216
555.04	234
555.093	226
555.145	246
555.197	244
555.249	246
555.301	232
555.353	246
555.406	252
555.458	238
555.51	232
555.562	250
555.614	262
555.666	258
555.719	250
555.771	238
555.823	264
555.875	248
555.927	262
555.979	258
556.031	280
556.084	256
556.136	262
556.188	256
556.24	258
556.292	262
556.344	266
556.396	268
556.449	274
556.501	280
556.553	268
556.605	278
556.657	256
556.709	274
556.762	260
556.814	280
556.866	270
556.918	264
556.97	280
557.022	274
557.074	306
557.127	296
557.179	260
557.231	294
557.283	280
557.335	298
557.387	288
557.439	292
557.492	290
557.544	286
557.596	286
557.648	296
557.7	288
557.752	286
557.804	286
557.856	298
557.909	294
557.961	290
558.013	290
558.065	296
558.117	314
558.169	284
558.221	318
558.273	304
558.326	312
558.378	288
558.43	306
558.482	300
558.534	296
558.586	316
558.638	324
558.691	322
558.743	310
558.795	318
558.847	312
558.899	306
558.951	306
559.003	310
559.055	330
559.108	306
559.16	300
559.212	298
559.264	300
559.316	328
559.368	328
559.42	302
559.472	306
559.525	322
559.577	320
559.629	302
559.681	322
559.733	320
559.785	322
559.837	330
559.889	334
559.941	334
559.994	316
560.046	314
560.098	348
560.15	348
560.202	324
560.254	336
560.306	324
560.358	332
560.41	344
560.463	362
560.515	332
560.567	358
560.619	334
560.671	356
560.723	336
560.775	344
560.827	340
560.879	376
560.932	350
560.984	368
561.036	326
561.088	372
561.14	362
561.192	370
561.244	352
561.296	372
561.348	374
561.4	354
561.453	360
561.505	394
561.557	364
561.609	390
561.661	376
561.713	402
561.765	374
561.817	372
561.869	372
561.921	382
561.974	392
562.026	378
562.078	386
562.13	394
562.182	388
562.234	366
562.286	386
562.338	414
562.39	402
562.442	404
562.494	400
562.547	412
562.599	408
562.651	386
562.703	406
562.755	408
562.807	428
562.859	414
562.911	402
562.963	414
563.015	422
563.067	424
563.12	440
563.172	438
563.224	420
563.276	420
563.328	424
563.38	440
563.432	436
563.484	422
563.536	432
563.588	436
563.64	426
563.692	434
563.744	442
563.797	444
563.849	438
563.901	444
563.953	468
564.005	424
564.057	436
564.109	436
564.161	440
564.213	468
564.265	434
564.317	474
564.369	448
564.421	458
564.474	464
564.526	480
564.578	460
564.63	474
564.682	494
564.734	472
564.786	478
564.838	478
564.89	480
564.942	458
564.994	482
565.046	474
565.098	474
565.15	490
565.202	494
565.255	482
565.307	486
565.359	522
565.411	506
565.463	490
565.515	484
565.567	508
565.619	506
565.671	512
565.723	514
565.775	506
565.827	508
565.879	492
565.931	508
565.983	512
566.035	514
566.087	500
566.139	516
566.192	530
566.244	526
566.296	528
566.348	532
566.4	524
566.452	506
566.504	516
566.556	554
566.608	544
566.66	554
566.712	534
566.764	556
566.816	572
566.868	558
566.92	560
566.972	566
567.024	560
567.076	540
567.128	540
567.18	534
567.232	564
567.285	562
567.337	552
567.389	554
567.441	560
567.493	548
567.545	598
567.597	566
567.649	604
567.701	602
567.753	566
567.805	606
567.857	568
567.909	612
567.961	616
568.013	624
568.065	602
568.117	604.12
568.169	608.316
568.221	598.667
568.273	631.174
568.325	624.492
568.377	618.493
568.429	610.238
568.481	608.699
568.533	628.512
568.585	614.566
568.637	610.525
568.69	646.147
568.742	620.388
568.794	650.35
568.846	638.438
568.898	644.923
568.95	635.875
569.002	642.7
569.054	655.694
569.106	666.861
569.158	651.489
569.21	655.354
569.262	641.883
569.314	665.235
569.366	650.681
569.418	670.994
569.47	682.358
569.522	698.32
569.574	646.693
569.626	674.426
569.678	687.23
569.73	693.186
569.782	689.979
569.834	714.402
569.886	709.944
569.938	717.376
569.99	711.941
570.042	730.43
570.094	739.173
570.146	743.028
570.198	700.151
570.25	735.866
570.302	733.821
570.354	728.981
570.406	747.956
570.458	742.82
570.51	765.111
570.562	755.824
570.614	755.643
570.666	779.582
570.718	768.855
570.77	790.75
570.822	797.664
570.874	803.62
570.926	806.862
570.978	808.855
571.03	820.576
571.082	818.428
571.134	828.607
571.186	834.778
571.238	857.077
571.29	870.613
571.342	848.782
571.394	860.856
571.446	869.046
571.498	886.514
571.55	904.713
571.602	902.777
571.654	915.309
571.706	918.415
571.758	924.692
571.81	932.228
571.862	926.994
571.914	935.61
571.966	962.337
572.018	983.213
572.07	974.672
572.122	985.381
572.174	1005.36
572.226	997.346
572.278	1031.8
572.33	1035.99
572.382	1052.49
572.434	1047.57
572.486	1068.25
572.538	1092.49
572.59	1075.63
572.642	1082.07
572.694	1137.53
572.746	1134.65
572.798	1151.81
572.85	1143.33
572.902	1166.15
572.954	1174.33
573.006	1226.21
573.058	1180.56
573.11	1234.25
573.162	1244.49
573.214	1257.77
573.266	1266.28
573.312	1298
573.364	1302
573.416	1324
573.469	1318
573.521	1392
573.573	1414
573.625	1442
573.677	1404
573.73	1454
573.782	1454
573.834	1486
573.886	1482
573.938	1564
573.991	1570
574.043	1582
574.095	1610
574.147	1652
574.199	1662
574.252	1608
574.304	1690
574.356	1740
574.408	1770
574.46	1792
574.513	1814
574.565	1842
574.617	1878
574.669	1888
574.721	1950
574.774	1958
574.826	1980
574.878	2020
574.93	2036
574.982	2028
575.035	2120
575.087	2142
575.139	2138
575.191	2152
575.243	2128
575.296	2156
575.348	2284
575.4	2200
575.452	2236
575.504	2278
575.556	2306
575.609	2268
575.661	2326
575.713	2246
575.765	2290
575.817	2282
575.87	2352
575.922	2232
575.974	2320
576.026	2262
576.078	2240
576.131	2316
576.183	2214
576.235	2296
576.287	2214
576.339	2170
576.391	2180
576.444	2248
576.496	2202
576.548	2164
576.6	2178
576.652	2110
576.705	2098
576.757	2106
576.809	2044
576.861	2058
576.913	2018
576.965	2016
577.018	1922
577.07	1974
577.122	1940
577.174	1916
577.226	1858
577.279	1846
577.331	1884
577.383	1840
577.435	1820
577.487	1770
577.539	1792
577.592	1802
577.644	1740
577.696	1752
577.748	1770
577.8	1708
577.852	1682
577.905	1716
577.957	1656
578.009	1670
578.061	1638
578.113	1610
578.165	1568
578.218	1640
578.27	1594
578.322	1560
578.374	1568
578.426	1588
578.478	1554
578.531	1532
578.583	1580
578.635	1528
578.687	1498
578.739	1518
578.791	1532
578.844	1512
578.896	1548
578.948	1496
579	1520
579.052	1488
579.104	1462
579.157	1490
579.209	1492
579.261	1454
579.313	1496
579.365	1456
579.417	1498
579.47	1482
579.522	1454
579.574	1482
579.626	1468
579.678	1498
579.73	1474
579.782	1474
579.835	1516
579.887	1482
579.939	1472
579.991	1476
580.043	1424
580.095	1476
580.148	1516
580.2	1492
580.252	1476
580.304	1458
580.356	1500
580.408	1440
580.46	1500
580.513	1462
580.565	1488
580.617	1534
580.669	1482
580.721	1512
580.773	1498
580.826	1508
580.878	1482
580.93	1502
580.982	1502
581.034	1504
581.086	1504
581.138	1476
581.191	1488
581.243	1494
581.295	1500
581.347	1510
581.399	1526
581.451	1466
581.503	1482
581.556	1548
581.608	1554
581.66	1596
581.712	1528
581.764	1550
581.816	1454
581.868	1526
581.92	1506
581.973	1550
582.025	1510
582.077	1538
582.129	1572
582.181	1568
582.233	1522
582.285	1604
582.338	1556
582.39	1562
582.442	1576
582.494	1574
582.546	1586
582.598	1584
582.65	1626
582.703	1608
582.755	1626
582.807	1606
582.859	1612
582.911	1634
582.963	1640
583.015	1590
583.067	1604
583.12	1604
583.172	1654
583.224	1642
583.276	1632
583.328	1644
583.38	1680
583.432	1622
583.484	1648
583.537	1638
583.589	1652
583.641	1684
583.693	1688
583.745	1648
583.797	1720
583.849	1708
583.901	1674
583.953	1686
584.006	1712
584.058	1696
584.11	1724
584.162	1724
584.214	1756
584.266	1772
584.318	1746
584.37	1772
584.423	1726
584.475	1778
584.527	1762
584.579	1736
584.631	1790
584.683	1796
584.735	1798
584.787	1802
584.839	1794
584.892	1808
584.944	1800
584.996	1784
585.048	1804
585.1	1846
585.152	1842
585.204	1856
585.256	1876
585.308	1818
585.361	1834
585.413	1890
585.465	1846
585.517	1872
585.569	1918
585.621	1906
585.673	1928
585.725	1888
585.777	1904
585.83	1876
585.882	1904
585.934	1904
585.986	1952
586.038	1894
586.09	1888
586.142	1960
586.194	1922
586.246	1946
586.298	1948
586.351	1958
586.403	1942
586.455	1950
586.507	1964
586.559	1990
586.611	1986
586.663	1988
586.715	1952
586.767	1964
586.819	2000
586.872	2060
586.924	2026
586.976	1970
587.028	2032
587.08	2030
587.132	2028
587.184	1988
587.236	2006
587.288	2010
587.34	2046
587.392	2032
587.445	2020
587.497	2048
587.549	2032
587.601	2010
587.653	2064
587.705	2022
587.757	2016
587.809	2008
587.861	2010
587.913	2010
587.965	1980
588.018	2074
588.07	2036
588.122	1970
588.174	2064
588.226	2028
588.278	2018
588.33	2074
588.382	2046
588.434	2040
588.486	2050
588.538	2064
588.59	2122
588.642	2040
588.695	2044
588.747	2034
588.799	2070
588.851	2050
588.903	1998
588.955	2076
589.007	2062
589.059	2142
589.111	2116
589.163	2090
589.215	2096
589.267	2108
589.319	2122
589.372	2102
589.424	2124
589.476	2172
589.528	2080
589.58	2122
589.632	2084
589.684	2120
589.736	2096
589.788	2050
589.84	2118
589.892	2102
589.944	2094
589.996	2102
590.048	2114
590.101	2124
590.153	2104
590.205	2084
590.257	2128
590.309	2094
590.361	2062
590.413	2144
590.465	2122
590.517	2090
590.569	2114
590.621	2100
590.673	2084
590.725	2106
590.777	2108
590.829	2080
590.881	2110
590.933	2098
590.986	2100
591.038	2140
591.09	2116
591.142	2132
591.194	2096
591.246	2118
591.298	2058
591.35	2070
591.402	2112
591.454	2110
591.506	2100
591.558	2136
591.61	2138
591.662	2074
591.714	2048
591.766	2052
591.818	2086
591.87	2060
591.923	2090
591.975	2078
592.027	2110
592.079	2124
592.131	2078
592.183	2098
592.235	2082
592.287	2036
592.339	2068
592.391	2092
592.443	2096
592.495	2070
592.547	2088
592.599	2096
592.651	2136
592.703	2044
592.755	2120
592.807	2090
592.859	2086
592.911	2104
592.963	2086
593.015	2070
593.068	2086
593.12	2132
593.172	2070
593.224	2092
593.276	2060
593.328	2114
593.38	2084
593.432	2088
593.484	2058
593.536	2070
593.588	2112
593.64	2108
593.692	2068
593.744	2098
593.796	2086
593.848	2134
593.9	2148
593.952	2066
594.004	2154
594.056	2092
594.108	2124
594.16	2092
594.212	2128
594.264	2138
594.316	2098
594.368	2132
594.42	2118
594.472	2152
594.524	2182
594.576	2164
594.628	2178
594.68	2178
594.732	2198
594.784	2110
594.837	2162
594.889	2188
594.941	2202
594.993	2156
595.045	2174
595.097	2138
595.149	2134
595.201	2238
595.253	2166
595.305	2234
595.357	2260
595.409	2222
595.461	2234
595.513	2210
595.565	2248
595.617	2216
595.669	2244
595.721	2256
595.773	2284
595.825	2282
595.877	2290
595.929	2290
595.981	2314
596.033	2288
596.085	2290
596.137	2296
596.189	2288
596.241	2320
596.293	2314
596.345	2322
596.397	2366
596.449	2394
596.501	2358
596.553	2390
596.605	2384
596.657	2368
596.709	2358
596.761	2404
596.813	2310
596.865	2382
596.917	2406
596.969	2338
597.021	2380
597.073	2386
597.125	2412
597.177	2382
597.229	2432
597.281	2458
597.333	2374
597.385	2408
597.437	2420
597.489	2436
597.541	2366
597.593	2414
597.645	2394
597.697	2404
597.749	2398
597.801	2422
597.853	2404
597.905	2438
597.957	2414
598.009	2440
598.061	2372
598.113	2446
598.165	2478
598.217	2440
598.269	2390
598.321	2432
598.373	2426
598.425	2418
598.477	2398
598.529	2446
598.581	2424
598.633	2434
598.685	2448
598.737	2414
598.789	2420
598.841	2414
598.893	2392
598.945	2426
598.997	2456
599.049	2418
599.101	2480
599.153	2478
599.205	2482
599.257	2478
599.309	2462
599.361	2436
599.413	2378
599.465	2450
599.517	2456
599.569	2486
599.62	2394
599.672	2460
599.724	2502
599.776	2472
599.828	2486
599.88	2484
599.932	2492
599.984	2444
600.036	2454
600.088	2468
600.14	2452
600.192	2498
600.244	2442
600.296	2488
600.348	2530
600.4	2478
600.452	2508
600.504	2502
600.556	2442
600.608	2478
600.66	2506
600.712	2452
600.764	2504
600.816	2452
600.868	2496
600.92	2460
600.972	2498
601.024	2516
601.076	2422
601.128	2476
601.18	2472
601.232	2498
601.284	2446
601.335	2478
601.387	2456
601.439	2464
601.491	2490
601.543	2516
601.595	2518
601.647	2512
601.699	2438
601.751	2508
601.803	2486
601.855	2496
601.907	2454
601.959	2476
602.011	2478
602.063	2506
602.115	2490
602.167	2536
602.219	2526
602.271	2538
602.323	2544
602.375	2562
602.427	2504
602.478	2518
602.53	2544
602.582	2504
602.634	2492
602.686	2486
602.738	2566
602.79	2526
602.842	2542
602.894	2530
602.946	2546
602.998	2520
603.05	2552
603.102	2532
603.154	2522
603.206	2584
603.258	2480
603.31	2540
603.362	2546
603.413	2458
603.465	2540
603.517	2586
603.569	2536
603.621	2584
603.673	2610
603.725	2570
603.777	2546
603.829	2560
603.881	2580
603.933	2584
603.985	2532
604.037	2562
604.089	2588
604.141	2530
604.193	2632
604.244	2578
604.296	2606
604.348	2570
604.4	2636
604.452	2594
604.504	2540
604.556	2584
604.608	2606
604.66	2582
604.712	2608
604.764	2654
604.816	2586
604.868	2568
604.92	2580
604.971	2616
605.023	2598
605.075	2630
605.127	2558
605.179	2576
605.231	2622
605.283	2580
605.335	2602
605.387	2612
605.439	2610
605.491	2598
605.543	2590
605.594	2620
605.646	2634
605.698	2582
605.75	2610
605.802	2638
605.854	2604
605.906	2610
605.958	2604
606.01	2564
606.062	2670
606.114	2624
606.166	2554
606.217	2620
606.269	2614
606.321	2606
606.373	2654
606.425	2622
606.477	2598
606.529	2634
606.581	2598
606.633	2632
606.685	2544
606.737	2614
606.789	2576
606.84	2630
606.892	2630
606.944	2596
606.996	2624
607.048	2622
607.1	2580
607.152	2620
607.204	2586
607.256	2598
607.308	2588
607.359	2610
607.411	2610
607.463	2628
607.515	2574
607.567	2600
607.619	2628
607.671	2588
607.723	2648
607.775	2648
607.827	2694
607.878	2628
607.93	2692
607.982	2642
608.034	2674
608.086	2678
608.138	2622
608.19	2698
608.242	2666
608.294	2688
608.345	2708
608.397	2708
608.449	2696
608.501	2682
608.553	2682
608.605	2686
608.657	2660
608.709	2690
608.761	2742
608.812	2696
608.864	2692
608.916	2730
608.968	2706
609.02	2782
609.072	2734
609.124	2736
609.176	2742
609.228	2744
609.279	2798
609.331	2710
609.383	2770
609.435	2692
609.487	2744
609.539	2750
609.591	2740
609.643	2782
609.694	2748
609.746	2744
609.798	2800
609.85	2798
609.902	2780
609.954	2738
610.006	2736
610.058	2790
610.109	2802
610.161	2796
610.213	2786
610.265	2800
610.317	2840
610.369	2788
610.421	2844
610.473	2796
610.524	2792
610.576	2824
610.628	2812
610.68	2766
610.732	2828
610.784	2866
610.836	2852
610.887	2828
610.939	2796
610.991	2866
611.043	2846
611.095	2848
611.147	2804
611.199	2820
611.25	2894
611.302	2818
611.354	2866
611.406	2834
611.458	2858
611.51	2864
611.562	2810
611.614	2886
611.665	2842
611.717	2866
611.769	2868
611.821	2880
611.873	2884
611.925	2878
611.977	2848
612.028	2888
612.08	2878
612.132	2878
612.184	2912
612.236	2928
612.288	2930
612.339	2926
612.391	2928
612.443	2864
612.495	2938
612.547	2928
612.599	2990
612.651	2882
612.702	2982
612.754	2986
612.806	2966
612.858	2862
612.91	2930
612.962	2934
613.013	2966
613.065	2942
613.117	2956
613.169	2986
613.221	2970
613.273	3018
613.325	3040
613.376	2988
613.428	2990
613.48	3012
613.532	3012
613.584	3020
613.635	3008
613.687	3048
613.739	3034
613.791	3048
613.843	3026
613.895	3002
613.947	3006
613.998	2978
614.05	3046
614.102	3054
614.154	3072
614.206	3112
614.258	3060
614.309	3056
614.361	3072
614.413	3100
614.465	3086
614.517	3014
614.568	3060
614.62	3110
614.672	3110
614.724	3118
614.776	3124
614.828	3128
614.879	3062
614.931	3154
614.983	3152
615.035	3172
615.087	3180
615.139	3102
615.19	3204
615.242	3180
615.294	3198
615.346	3208
615.398	3190
615.449	3162
615.501	3142
615.553	3194
615.605	3176
615.657	3184
615.709	3218
615.76	3242
615.812	3268
615.864	3220
615.916	3196
615.968	3186
616.019	3160
616.071	3244.84
616.123	3301.86
616.175	3258.19
616.227	3266.72
616.278	3228.17
616.33	3216.88
616.382	3202.34
616.434	3255.52
616.486	3243.39
616.537	3300.92
616.589	3243.13
616.641	3276.69
616.693	3277.09
616.745	3288.75
616.797	3266.13
616.848	3284.83
616.9	3255.15
616.952	3282.77
617.004	3298.11
617.056	3261.6
617.107	3327.25
617.159	3296.78
617.211	3297.88
617.263	3272.72
617.315	3334.66
617.366	3313.63
617.418	3318.02
617.47	3320.44
617.522	3278.53
617.573	3379.23
617.625	3314.67
617.677	3336
617.729	3339.89
617.781	3350.46
617.832	3349.73
617.884	3344
617.936	3368.99
617.988	3370.54
618.04	3388.86
618.091	3396.11
618.143	3368.78
618.195	3427.27
618.247	3368.99
618.299	3410.14
618.35	3417.8
618.402	3374.64
618.454	3396.12
618.506	3386.35
618.557	3425.92
618.609	3451.18
618.661	3427.05
618.713	3380.8
618.765	3442.51
618.816	3471.88
618.868	3457.52
618.92	3430.75
618.972	3467.87
619.023	3465.51
619.075	3466.15
619.127	3442.38
619.179	3469.16
619.231	3461.21
619.282	3484.9
619.334	3453.72
619.386	3482.38
619.438	3477.33
619.49	3456.71
619.541	3477.24
619.593	3460.79
619.645	3506.77
619.697	3510.18
619.748	3523.3
619.8	3471.7
619.852	3442.57
619.904	3524.43
619.955	3473.19
620.007	3484.36
620.059	3532.26
620.111	3512.62
620.162	3526.9
620.214	3540.5
620.266	3526.13
620.318	3530.29
620.37	3499.98
620.421	3513.09
620.473	3548.22
620.525	3569.96
620.577	3548.92
620.628	3531.39
620.68	3519.04
620.732	3559.02
620.784	3565.29
620.835	3549.61
620.887	3577.55
620.939	3584.61
620.991	3589.81
621.042	3563.35
621.094	3551.39
621.146	3520.83
621.198	3548.83
621.249	3536.7
621.269	3512
621.321	3586
621.373	3556
621.425	3610
621.477	3596
621.529	3594
621.581	3482
621.633	3500
621.685	3626
621.737	3512
621.789	3602
621.841	3516
621.893	3552
621.945	3638
621.997	3634
622.049	3604
622.101	3510
622.153	3610
622.205	3582
622.257	3650
622.309	3624
622.361	3594
622.413	3552
622.465	3598
622.517	3610
622.569	3632
622.621	3554
622.673	3622
622.725	3622
622.776	3624
622.828	3542
622.88	3652
622.932	3610
622.984	3624
623.036	3578
623.088	3654
623.14	3664
623.192	3618
623.244	3574
623.296	3614
623.348	3680
623.4	3644
623.452	3636
623.504	3592
623.556	3676
623.608	3636
623.66	3612
623.712	3602
623.764	3652
623.816	3662
623.868	3650
623.92	3636
623.972	3694
624.024	3652
624.076	3620
624.128	3688
624.18	3684
624.232	3676
624.284	3660
624.336	3652
624.388	3690
624.44	3726
624.492	3626
624.544	3736
624.596	3776
624.648	3702
624.699	3686
624.751	3680
624.803	3712
624.855	3706
624.907	3702
624.959	3712
625.011	3680
625.063	3716
625.115	3654
625.167	3720
625.219	3672
625.271	3766
625.323	3698
625.375	3818
625.427	3744
625.479	3718
625.531	3780
625.583	3746
625.635	3770
625.687	3762
625.739	3830
625.791	3802
625.843	3832
625.895	3808
625.946	3826
625.998	3768
626.05	3774
626.102	3770
626.154	3762
626.206	3804
626.258	3838
626.31	3734
626.362	3838
626.414	3832
626.466	3766
626.518	3826
626.57	3864
626.622	3824
626.674	3824
626.726	3788
626.778	3832
626.83	3856
626.882	3830
626.934	3860
626.985	3908
627.037	3904
627.089	3830
627.141	3830
627.193	3882
627.245	3852
627.297	3876
627.349	3880
627.401	3870
627.453	3892
627.505	3942
627.557	3900
627.609	3882
627.661	3880
627.713	3892
627.765	3902
627.817	3956
627.868	3942
627.92	3888
627.972	3896
628.024	3914
628.076	3970
628.128	3972
628.18	3990
628.232	3904
628.284	3936
628.336	3950
628.388	3986
628.44	3902
628.492	3952
628.544	3980
628.596	3978
628.647	3990
628.699	3954
628.751	3978
628.803	3976
628.855	4000
628.907	4044
628.959	4032
629.011	4050
629.063	3938
629.115	4084
629.167	3980
629.219	4046
629.271	4040
629.322	4026
629.374	3964
629.426	4046
629.478	4040
629.53	4016
629.582	4038
629.634	4074
629.686	4068
629.738	4100
629.79	4006
629.842	4080
629.894	4150
629.945	4110
629.997	4060
630.049	4066
630.101	4078
630.153	4114
630.205	4182
630.257	4114
630.309	4106
630.361	4136
630.413	4122
630.465	4108
630.517	4052
630.568	4098
630.62	4146
630.672	4158
630.724	4154
630.776	4152
630.828	4180
630.88	4124
630.932	4136
630.984	4188
631.036	4190
631.088	4150
631.14	4170
631.191	4142
631.243	4204
631.295	4254
631.347	4174
631.399	4232
631.451	4210
631.503	4150
631.555	4288
631.607	4172
631.659	4238
631.71	4270
631.762	4310
631.814	4232
631.866	4328
631.918	4276
631.97	4278
632.022	4328
632.074	4292
632.126	4324
632.178	4242
632.229	4338
632.281	4278
632.333	4364
632.385	4296
632.437	4290
632.489	4374
632.541	4332
632.593	4402
632.645	4304
632.696	4370
632.748	4382
632.8	4360
632.852	4374
632.904	4372
632.956	4342
633.008	4392
633.06	4456
633.112	4496
633.164	4476
633.215	4492
633.267	4492
633.319	4364
633.371	4458
633.423	4476
633.475	4532
633.527	4516
633.579	4460
633.63	4474
633.682	4514
633.734	4588
633.786	4574
633.838	4558
633.89	4600
633.942	4488
633.994	4562
634.046	4578
634.097	4502
634.149	4652
634.201	4616
634.253	4690
634.305	4646
634.357	4606
634.409	4622
634.461	4668
634.512	4688
634.564	4674
634.616	4714
634.668	4588
634.72	4666
634.772	4738
634.824	4740
634.876	4762
634.927	4794
634.979	4744
635.031	4736
635.083	4788
635.135	4848
635.187	4910
635.239	4766
635.291	4824
635.342	4868
635.394	4824
635.446	4896
635.498	4894
635.55	4928
635.602	4982
635.654	5018
635.705	4984
635.757	4994
635.809	5048
635.861	5026
635.913	5102
635.965	5116
636.017	5156
636.068	5170
636.12	5164
636.172	5256
636.224	5302
636.276	5304
636.328	5308
636.38	5378
636.431	5412
636.483	5426
636.535	5416
636.587	5476
636.639	5508
636.691	5618
636.743	5604
636.794	5734
636.846	5764
636.898	5780
636.95	5804
637.002	5876
637.054	5932
637.106	5962
637.157	6020
637.209	5954
637.261	6184
637.313	6164
637.365	6144
637.417	6188
637.469	6330
637.52	6332
637.572	6318
637.624	6404
637.676	6470
637.728	6452
637.78	6512
637.831	6578
637.883	6534
637.935	6620
637.987	6538
638.039	6644
638.091	6604
638.143	6664
638.194	6648
638.246	6602
638.298	6608
638.35	6664
638.402	6624
638.454	6536
638.505	6602
638.557	6490
638.609	6496
638.661	6464
638.713	6366
638.765	6510
638.816	6448
638.868	6452
638.92	6440
638.972	6374
639.024	6272
639.076	6230
639.127	6266
639.179	6238
639.231	6262
639.283	6202
639.335	6202
639.387	6140
639.438	6200
639.49	6048
639.542	6136
639.594	6046
639.646	6018
639.698	6000
639.749	6014
639.801	5960
639.853	5928
639.905	5944
639.957	5946
640.008	5844
640.06	5890
640.112	5868
640.164	5872
640.216	5830
640.268	5798
640.319	5848
640.371	5834
640.423	5802
640.475	5820
640.527	5792
640.578	5706
640.63	5686
640.682	5730
640.734	5692
640.786	5712
640.838	5614
640.889	5678
640.941	5678
640.993	5714
641.045	5682
641.097	5648
641.148	5662
641.2	5696
641.252	5630
641.304	5620
641.356	5676
641.408	5662
641.459	5590
641.511	5674
641.563	5626
641.615	5560
641.667	5628
641.718	5586
641.77	5540
641.822	5520
641.874	5616
641.926	5540
641.977	5658
642.029	5578
642.081	5546
642.133	5634
642.185	5578
642.236	5520
642.288	5544
642.34	5612
642.392	5616
642.444	5696
642.495	5584
642.547	5568
642.599	5636
642.651	5570
642.703	5636
642.754	5566
642.806	5598
642.858	5662
642.91	5602
642.962	5552
643.013	5672
643.065	5648
643.117	5630
643.169	5576
643.221	5592
643.272	5666
643.324	5704
643.376	5670
643.428	5594
643.479	5596
643.531	5654
643.583	5714
643.635	5680
643.687	5638
643.738	5608
643.79	5604
643.842	5668
643.894	5688
643.946	5626
643.997	5654
644.049	5760
644.101	5710
644.153	5642
644.205	5672
644.256	5776
644.308	5680
644.36	5756
644.412	5698
644.463	5648
644.515	5746
644.567	5706
644.619	5728
644.671	5714
644.722	5752
644.774	5724
644.826	5814
644.878	5672
644.929	5784
644.981	5754
645.033	5718
645.085	5698
645.136	5772
645.188	5734
645.24	5844
645.292	5802
645.344	5762
645.395	5688
645.447	5866
645.499	5802
645.551	5798
645.602	5820
645.654	5752
645.706	5830
645.758	5830
645.81	5828
645.861	5832
645.913	5806
645.965	5802
646.017	5858
646.068	5896
646.12	5840
646.172	5794
646.224	5866
646.275	5910
646.327	5908
646.379	5910
646.431	5930
646.482	5788
646.534	5832
646.586	5938
646.638	5874
646.689	5920
646.741	5858
646.793	5898
646.845	5868
646.896	5880
646.948	5860
647	5928
647.052	5952
647.104	5958
647.155	5862
647.207	5858
647.259	5878
647.31	5910
647.362	5938
647.414	5892
647.466	5996
647.518	5948
647.569	5970
647.621	5992
647.673	6012
647.724	5956
647.776	5950
647.828	6102
647.88	5896
647.931	5970
647.983	5992
648.035	6026
648.087	5960
648.138	6046
648.19	6100
648.242	6104
648.294	6038
648.345	6056
648.397	6064
648.449	6036
648.501	6102
648.552	6076
648.604	6106
648.656	6138
648.708	6096
648.759	6038
648.811	6172
648.863	6110
648.915	6134
648.966	6154
649.018	6134
649.07	6100
649.121	6154
649.173	6104
649.225	6020
649.277	6134
649.328	6226
649.38	6130
649.432	6192
649.484	6198
649.535	6198
649.587	6196
649.639	6194
649.69	6268
649.742	6166
649.794	6254
649.846	6228
649.897	6336
649.949	6274
650.001	6264
650.053	6354
650.104	6218
650.156	6344
650.208	6336
650.259	6360
650.311	6272
650.363	6364
650.415	6344
650.466	6356
650.518	6400
650.57	6250
650.621	6324
650.673	6414
650.725	6406
650.777	6402
650.828	6430
650.88	6400
650.932	6376
650.984	6372
651.035	6466
651.087	6494
651.139	6428
651.19	6462
651.242	6452
651.294	6372
651.345	6424
651.397	6530
651.449	6424
651.501	6440
651.552	6470
651.604	6554
651.656	6472
651.707	6400
651.759	6490
651.811	6508
651.863	6536
651.914	6538
651.966	6546
652.018	6558
652.069	6654
652.121	6474
652.173	6524
652.224	6532
652.276	6658
652.328	6538
652.38	6622
652.431	6596
652.483	6646
652.535	6602
652.586	6558
652.638	6610
652.69	6604
652.741	6692
652.793	6718
652.845	6644
652.897	6724
652.948	6670
653	6796
653.052	6756
653.103	6736
653.155	6868
653.207	6764
653.258	6682
653.31	6692
653.362	6734
653.413	6766
653.465	6756
653.517	6802
653.568	6866
653.62	6868
653.672	6828
653.724	6874
653.775	6906
653.827	6894
653.879	6780
653.93	6946
653.982	6924
654.034	6902
654.085	6884
654.137	6796
654.189	6982
654.24	6938
654.292	6984
654.344	6940
654.395	7010
654.447	7066
654.499	7030
654.55	7028
654.602	7068
654.654	7054
654.705	7032
654.757	7098
654.809	7008
654.86	7046
654.912	7070
654.964	7058
655.016	7198
655.067	7196
655.119	7176
655.17	7192
655.222	7122
655.274	7240
655.326	7220
655.377	7204
655.429	7226
655.481	7300
655.532	7204
655.584	7270
655.635	7304
655.687	7304
655.739	7324
655.79	7322
655.842	7350
655.894	7342
655.945	7402
655.997	7518
656.049	7384
656.1	7436
656.152	7424
656.204	7434
656.255	7524
656.307	7436
656.359	7558
656.41	7510
656.462	7528
656.514	7576
656.565	7514
656.617	7650
656.669	7540
656.72	7592
656.772	7632
656.824	7664
656.875	7642
656.927	7700
656.979	7642
657.03	7618
657.082	7768
657.134	7808
657.185	7674
657.237	7722
657.288	7708
657.34	7674
657.392	7808
657.443	7814
657.495	7872
657.547	7772
657.598	7818
657.65	7880
657.702	7870
657.753	7900
657.805	7760
657.857	7804
657.908	7888
657.96	7870
658.011	7922
658.063	7924
658.115	7884
658.166	7934
658.218	7896
658.27	7962
658.321	7930
658.373	7918
658.425	7916
658.476	8004
658.528	7954
658.579	7998
658.631	8002
658.683	8018
658.734	7956
658.786	8028
658.838	7984
658.889	8044
658.941	8004
658.992	7884
659.044	7974
659.096	7954
659.147	8074
659.199	8054
659.251	8044
659.302	7926
659.354	8090
659.406	8040
659.457	8142
659.509	8096
659.56	8002
659.612	8050
659.664	8082
659.715	8052
659.767	8112
659.818	8106
659.87	8062
659.922	8054
659.973	7920
660.025	8024
660.077	8024
660.128	8078
660.18	8002
660.231	8028
660.283	8056
660.335	7984
660.386	8078
660.438	8118
660.49	8136
660.541	8068
660.593	8094
660.644	8094
660.696	8062
660.748	8088
660.799	8158
660.851	8010
660.902	8138
660.954	8070
661.006	8128
661.057	7996
661.109	8094
661.16	8068
661.212	8062
661.264	8122
661.315	8088
661.367	8088
661.418	8098
661.47	8146
661.522	8146
661.573	8050
661.625	8130
661.676	8094
661.728	8116
661.78	8078
661.831	8108
661.883	8092
661.934	8080
661.986	8054
662.038	8152
662.089	8098
662.141	8120
662.192	8116
662.244	8130
662.296	8150
662.347	8142
662.399	8124
662.45	8134
662.502	7998
662.554	8040
662.605	8078
662.657	8148
662.708	8006
662.76	8080
662.811	8080
662.863	8064
662.915	8176
662.966	8062
663.018	8124
663.069	8120
663.121	8042
663.173	8048
663.224	8142
663.276	8134
663.327	8192
663.379	8100
663.43	8102
663.482	8104
663.534	8138
663.585	8084
663.637	8132
663.688	8120
663.74	8104.13
663.792	8128.28
663.843	8057.29
663.895	8094.07
663.946	8057.85
663.998	8117.92
664.049	8112.43
664.101	8108.66
664.153	8200.02
664.204	8155.53
664.256	8137.84
664.307	8080.55
664.359	8065.37
664.41	8105.16
664.462	8088.81
664.513	8110.06
664.565	8088.14
664.617	8090.02
664.668	8109.79
664.72	8177.67
664.771	8009.98
664.823	8086.83
664.874	8180.07
664.926	8101.02
664.978	8060.22
665.029	8158.87
665.081	8106.3
665.132	8163.83
665.184	8163.37
665.235	8100.6
665.287	8108.52
665.339	8119.06
665.39	8177.8
665.442	8193.65
665.493	8121.12
665.545	8126.73
665.596	8147.42
665.648	8102.2
665.699	8103.16
665.751	8161.37
665.802	8010.21
665.854	8097.59
665.906	8084.7
665.957	8132.31
666.009	8081.84
666.06	8105.9
666.112	8103.09
666.163	8135.75
666.215	8111.86
666.266	8172.39
666.318	8124.22
666.37	8116.34
666.421	8057.08
666.473	8075.21
666.524	8080.39
666.576	8105.68
666.627	8103.28
666.679	8116.42
666.73	8113.92
666.782	8092.54
666.833	8159.42
666.885	8108.27
666.937	8083.6
666.988	8042.37
667.04	8129.09
667.091	8164.14
667.143	8137.49
667.194	8101.98
667.246	8063.24
667.297	8064.2
667.349	8067.63
667.4	8104.52
667.452	8113.47
667.503	8120.07
667.555	8101.96
667.607	8134.32
667.658	8108.7
667.71	8133.08
667.761	8178.8
667.813	8120.73
667.864	8107.68
667.916	8146.14
667.967	8144.14
668.019	8103.16
668.07	8106.19
668.122	8049.38
668.173	8072.7
668.225	8146.29
668.276	8089.31
668.328	8080.14
668.379	8046.26
668.431	8063.6
668.482	8089.69
668.534	8087.61
668.586	8078.93
668.637	8159.68
668.689	8080.61
668.74	8091.01
668.792	8079.63
668.843	8146.9
668.895	8193.32
668.935	8178
668.987	8100
669.038	8094
669.09	8160
669.142	8118
669.194	8114
669.245	8104
669.297	8042
669.349	8074
669.401	8102
669.453	8112
669.504	8130
669.556	8026
669.608	8156
669.66	8060
669.711	8078
669.763	8158
669.815	8094
669.867	8052
669.918	8054
669.97	8068
670.022	8064
670.074	8052
670.125	8080
670.177	8044
670.229	8120
670.281	8118
670.332	8168
670.384	8160
670.436	8150
670.488	8056
670.539	8110
670.591	8010
670.643	8094
670.695	8128
670.747	7938
670.798	8106
670.85	8146
670.902	8032
670.953	8054
671.005	7938
671.057	8144
671.109	8066
671.161	8052
671.212	8074
671.264	8150
671.316	8200
671.367	8146
671.419	8132
671.471	8128
671.523	8114
671.575	8162
671.626	8130
671.678	8028
671.73	8168
671.781	8108
671.833	8112
671.885	8084
671.937	8144
671.988	8160
672.04	8108
672.092	8246
672.144	8150
672.195	8200
672.247	8068
672.299	8158
672.351	8068
672.402	8204
672.454	8158
672.506	8176
672.558	8170
672.609	8192
672.661	8152
672.713	8136
672.765	8226
672.816	8108
672.868	8192
672.92	8242
672.971	8216
673.023	8178
673.075	8202
673.127	8226
673.178	8264
673.23	8244
673.282	8300
673.334	8270
673.385	8350
673.437	8254
673.489	8212
673.54	8252
673.592	8408
673.644	8266
673.696	8314
673.747	8304
673.799	8368
673.851	8276
673.903	8362
673.954	8264
674.006	8290
674.058	8356
674.109	8392
674.161	8368
674.213	8340
674.265	8382
674.316	8328
674.368	8240
674.42	8304
674.471	8504
674.523	8336
674.575	8448
674.627	8460
674.678	8408
674.73	8420
674.782	8428
674.833	8428
674.885	8406
674.937	8500
674.989	8484
675.04	8422
675.092	8490
675.144	8480
675.195	8560
675.247	8482
675.299	8564
675.351	8564
675.402	8478
675.454	8568
675.506	8566
675.557	8588
675.609	8452
675.661	8534
675.713	8530
675.764	8492
675.816	8526
675.868	8448
675.919	8546
675.971	8556
676.023	8528
676.074	8592
676.126	8574
676.178	8584
676.23	8566
676.281	8618
676.333	8594
676.385	8580
676.436	8596
676.488	8586
676.54	8652
676.591	8606
676.643	8602
676.695	8620
676.747	8546
676.798	8554
676.85	8614
676.902	8632
676.953	8582
677.005	8630
677.057	8530
677.108	8552
677.16	8480
677.212	8598
677.263	8544
677.315	8516
677.367	8566
677.419	8648
677.47	8644
677.522	8548
677.574	8668
677.625	8574
677.677	8566
677.729	8686
677.78	8582
677.832	8546
677.884	8628
677.935	8606
677.987	8536
678.039	8690
678.091	8578
678.142	8606
678.194	8568
678.246	8654
678.297	8516
678.349	8552
678.401	8556
678.452	8608
678.504	8600
678.556	8612
678.607	8592
678.659	8604
678.711	8658
678.762	8548
678.814	8570
678.866	8518
678.917	8562
678.969	8628
679.021	8664
679.072	8546
679.124	8560
679.176	8618
679.227	8518
679.279	8586
679.331	8548
679.382	8590
679.434	8552
679.486	8522
679.537	8518
679.589	8570
679.641	8580
679.692	8610
679.744	8630
679.796	8550
679.847	8658
679.899	8532
679.951	8554
680.003	8650
680.054	8688
680.106	8624
680.157	8690
680.209	8662
680.261	8756
680.312	8704
680.364	8684
680.416	8704
680.467	8668
680.519	8656
680.571	8668
680.622	8754
680.674	8738
680.726	8764
680.777	8702
680.829	8666
680.881	8632
680.932	8694
680.984	8746
681.036	8696
681.087	8700
681.139	8704
681.191	8666
681.242	8694
681.294	8704
681.346	8718
681.397	8690
681.449	8772
681.501	8752
681.552	8776
681.604	8758
681.656	8740
681.707	8758
681.759	8706
681.81	8824
681.862	8770
681.914	8840
681.965	8714
682.017	8788
682.069	8840
682.12	8728
682.172	8808
682.224	8906
682.275	8794
682.327	8874
682.379	8766
682.43	8778
682.482	8834
682.533	8996
682.585	8780
682.637	8800
682.688	8796
682.74	8784
682.792	8900
682.843	8774
682.895	8854
682.947	8896
682.998	8774
683.05	8844
683.102	8892
683.153	8830
683.205	8832
683.256	8838
683.308	8856
683.36	8882
683.411	8778
683.463	8858
683.515	8754
683.566	8750
683.618	8818
683.669	8772
683.721	8844
683.773	8776
683.824	8722
683.876	8816
683.928	8688
683.979	8846
684.031	8816
684.082	8784
684.134	8738
684.186	8704
684.237	8742
684.289	8766
684.341	8828
684.392	8696
684.444	8782
684.495	8734
684.547	8782
684.599	8686
684.65	8822
684.702	8760
684.754	8770
684.805	8798
684.857	8754
684.908	8682
684.96	8736
685.012	8670
685.063	8738
685.115	8676
685.166	8734
685.218	8682
685.27	8780
685.321	8662
685.373	8644
685.424	8742
685.476	8694
685.528	8724
685.579	8678
685.631	8628
685.683	8596
685.734	8650
685.786	8630
685.837	8592
685.889	8652
685.941	8528
685.992	8592
686.044	8620
686.095	8656
686.147	8692
686.199	8758
686.25	8636
686.302	8530
686.353	8608
686.405	8666
686.457	8658
686.508	8612
686.56	8588
686.611	8578
686.663	8732
686.715	8604
686.766	8666
686.818	8520
686.869	8524
686.921	8482
686.973	8594
687.024	8610
687.076	8592
687.127	8590
687.179	8546
687.231	8554
687.282	8632
687.334	8688
687.385	8570
687.437	8544
687.489	8600
687.54	8656
687.592	8656
687.643	8612
687.695	8530
687.747	8640
687.798	8610
687.85	8608
687.901	8582
687.953	8490
688.004	8626
688.056	8512
688.108	8584
688.159	8556
688.211	8450
688.262	8604
688.314	8590
688.366	8538
688.417	8504
688.469	8608
688.52	8558
688.572	8604
688.623	8552
688.675	8636
688.727	8442
688.778	8596
688.83	8536
688.881	8568
688.933	8510
688.984	8542
689.036	8464
689.088	8578
689.139	8516
689.191	8510
689.242	8496
689.294	8514
689.346	8500
689.397	8442
689.449	8622
689.5	8490
689.552	8608
689.603	8480
689.655	8442
689.706	8540
689.758	8490
689.81	8518
689.861	8502
689.913	8518
689.964	8458
690.016	8530
690.067	8538
690.119	8380
690.171	8538
690.222	8454
690.274	8488
690.325	8442
690.377	8450
690.428	8436
690.48	8394
690.531	8446
690.583	8478
690.635	8496
690.686	8410
690.738	8490
690.789	8490
690.841	8412
690.892	8412
690.944	8412
690.996	8406
691.047	8370
691.099	8346
691.15	8270
691.202	8400
691.253	8328
691.305	8304
691.356	8308
691.408	8314
691.459	8360
691.511	8334
691.563	8332
691.614	8292
691.666	8424
691.717	8328
691.769	8340
691.82	8266
691.872	8366
691.923	8284
691.975	8322
692.026	8320
692.078	8296
692.13	8236
692.181	8224
692.233	8288
692.284	8394
692.336	8266
692.387	8300
692.439	8330
692.49	8260
692.542	8216
692.593	8248
692.645	8188
692.697	8248
692.748	8178
692.8	8228
692.851	8248
692.903	8288
692.954	8216
693.006	8186
693.057	8098
693.109	8222
693.16	8310
693.212	8230
693.263	8190
693.315	8228
693.366	8134
693.418	8172
693.47	8178
693.521	8170
693.573	8174
693.624	8218
693.676	8096
693.727	8092
693.779	8238
693.83	8098
693.882	8182
693.933	8152
693.985	8024
694.036	8134
694.088	8102
694.139	8112
694.191	8056
694.242	8042
694.294	8132
694.345	8116
694.397	8122
694.448	8016
694.5	8052
694.552	8156
694.603	8138
694.655	8072
694.706	8090
694.758	8096
694.809	8104
694.861	8132
694.912	8054
694.964	8064
695.015	8084
695.067	8016
695.118	8044
695.17	7924
695.221	8058
695.273	8064
695.324	8052
695.376	8118
695.427	8082
695.479	8058
695.53	8110
695.582	8092
695.633	8006
695.685	8088
695.736	8032
695.788	8062
695.839	7896
695.891	8122
695.942	7992
695.994	8056
696.045	7938
696.097	8080
696.148	8026
696.2	8020
696.251	7960
696.303	7974
696.354	7970
696.406	8052
696.457	7902
696.509	7960
696.56	8014
696.612	7962
696.663	7848
696.715	7882
696.766	7898
696.818	8030
696.869	7968
696.921	7882
696.972	7832
697.024	7908
697.075	7854
697.127	7812
697.178	7934
697.23	7942
697.281	7866
697.333	7862
697.384	7802
697.436	7844
697.487	7876
697.539	7844
697.59	7816
697.642	7792
697.693	7872
697.745	7844
697.796	7740
697.847	7764
697.899	7744
697.95	7824
698.002	7760
698.053	7752
698.105	7684
698.156	7860
698.208	7762
698.259	7760
698.311	7806
698.362	7806
698.414	7768
698.465	7760
698.517	7660
698.568	7680
698.62	7686
698.671	7698
698.723	7724
698.774	7612
698.826	7686
698.877	7626
698.928	7750
698.98	7718
699.031	7660
699.083	7600
699.134	7698
699.186	7720
699.237	7584
699.289	7648
699.34	7596
699.392	7606
699.443	7640
699.495	7626
699.546	7518
699.598	7642
699.649	7626
699.7	7630
699.752	7556
699.803	7598
699.855	7568
699.906	7686
699.958	7588
700.009	7556
700.061	7622
700.112	7502
700.164	7566
700.215	7536
700.266	7574
700.318	7502
700.369	7522
700.421	7606
700.472	7602
700.524	7496
700.575	7594
700.627	7600
700.678	7596
700.73	7558
700.781	7558
700.832	7568
700.884	7556
700.935	7570
700.987	7448
701.038	7512
701.09	7480
701.141	7584
701.193	7542
701.244	7540
701.295	7536
701.347	7500
701.398	7552
701.45	7590
701.501	7576
701.553	7576
701.604	7606
701.656	7552
701.707	7584
701.758	7520
701.81	7502
701.861	7576
701.913	7582
701.964	7536
702.016	7568
702.067	7552
702.119	7560
702.17	7498
702.221	7552
702.273	7544
702.324	7460
702.376	7532
702.427	7524
702.479	7518
702.53	7572
702.581	7518
702.633	7544
702.684	7548
702.736	7566
702.787	7414
702.839	7488
702.89	7566
702.941	7534
702.993	7598
703.044	7596
703.096	7484
703.147	7620
703.199	7470
703.25	7602
703.301	7514
703.353	7460
703.404	7518
703.456	7460
703.507	7510
703.558	7586
703.61	7476
703.661	7528
703.713	7550
703.764	7512
703.816	7504
703.867	7452
703.918	7518
703.97	7580
704.021	7466
704.073	7466
704.124	7462
704.175	7436
704.227	7454
704.278	7402
704.33	7434
704.381	7406
704.432	7434
704.484	7408
704.535	7382
704.587	7472
704.638	7424
704.69	7442
704.741	7388
704.792	7338
704.844	7408
704.895	7342
704.947	7284
704.998	7372
705.049	7410
705.101	7348
705.152	7398
705.204	7350
705.255	7360
705.306	7322
705.358	7306
705.409	7268
705.461	7276
705.512	7254
705.563	7322
705.615	7296
705.666	7254
705.718	7176
705.769	7258
705.82	7176
705.872	7326
705.923	7296
705.974	7354
706.026	7242
706.077	7194
706.129	7160
706.18	7132
706.231	7202
706.283	7172
706.334	7170
706.386	7152
706.437	7064
706.488	7214
706.54	7208
706.591	7218
706.643	7102
706.694	7140
706.745	7140
706.797	7208
706.848	7082
706.899	7108
706.951	7042
707.002	7086
707.054	7048
707.105	7066
707.156	7096
707.208	7052
707.259	7080
707.31	7020
707.362	7054
707.413	6996
707.465	7060
707.516	7024
707.567	7086
707.619	7052
707.67	7070
707.721	6954
707.773	7056
707.824	7054
707.876	6900
707.927	6944
707.978	6982
708.03	7056
708.081	6986
708.132	6988
708.184	6950
708.235	6972
708.287	6974
708.338	6982
708.389	6992
708.441	6876
708.492	6892
708.543	6986
708.595	6972
708.646	7016
708.697	6936
708.749	7056
708.8	6946
708.852	6868
708.903	6900
708.954	7002
709.006	6984
709.057	6956
709.108	6886
709.16	6978
709.211	6960
709.262	6882
709.314	6962
709.365	7014
709.416	6930
709.468	6840
709.519	6916
709.57	6808
709.622	6854
709.673	6912
709.725	6848
709.776	6898
709.827	6888
709.879	6836
709.93	6888
709.981	6914
710.033	6866
710.084	6836
710.135	6896
710.187	6820
710.238	6896
710.289	6806
710.341	6876
710.392	6852
710.443	6848
710.495	6870
710.546	6772
710.597	6828
710.649	6834
710.7	6868
710.751	6840
710.803	6772
710.854	6816
710.905	6722
710.957	6756
711.008	6802
711.059	6734
711.111	6736
711.162	6800
711.213	6774
711.265	6831.83
711.316	6713.9
711.367	6667.08
711.419	6818.28
711.47	6712.81
711.521	6737.39
711.573	6713.13
711.624	6716
711.675	6756.25
711.727	6791.4
711.778	6725.48
711.829	6682.28
711.881	6723.65
711.932	6701.91
711.983	6709.11
712.035	6593.04
712.086	6658.83
712.137	6692.65
712.189	6655.86
712.24	6658.01
712.291	6629.73
712.343	6607.21
712.394	6614.27
712.445	6603.24
712.496	6653.61
712.548	6688.29
712.599	6643.04
712.65	6637.65
712.702	6600.4
712.753	6587.53
712.804	6632.71
712.856	6523.89
712.907	6534.48
712.958	6597.52
713.01	6466.49
713.061	6506.58
713.112	6525.98
713.164	6580.26
713.215	6562.75
713.266	6489.99
713.317	6471.73
713.369	6492.27
713.42	6509.98
713.471	6490.95
713.523	6507.27
713.574	6480.82
713.625	6441.93
713.677	6445.63
713.728	6484.06
713.779	6461.6
713.831	6415.83
713.882	6411.18
713.933	6418.27
713.984	6416.55
714.036	6404.04
714.087	6381.49
714.138	6406.53
714.19	6364.15
714.241	6375.35
714.292	6346.03
714.343	6381.69
714.395	6368.57
714.446	6377.97
714.497	6362.94
714.549	6326.29
714.6	6301.43
714.651	6306.05
714.703	6347.86
714.754	6322.05
714.805	6348.23
714.856	6338.73
714.908	6289.05
714.959	6281.09
715.01	6253.64
715.062	6276.65
715.113	6253.71
715.164	6247.79
715.215	6273.05
715.267	6263.53
715.318	6278.4
715.369	6250.93
715.421	6212.67
715.472	6238.78
715.523	6240.6
715.574	6266.71
715.626	6269.96
715.677	6247.71
715.728	6224.96
715.779	6228.34
715.831	6213.76
715.882	6164.96
715.933	6149.42
715.985	6170.66
716.036	6174.45
716.087	6165.22
716.138	6132.9
716.19	6151.55
716.241	6137.36
716.292	6192.46
716.343	6170.83
716.395	6147.3
716.433	6040
716.485	6150
716.536	6132
716.588	6168
716.639	6052
716.691	6098
716.742	6108
716.794	6148
716.845	6104
716.897	6074
716.948	6094
717	6140
717.052	6030
717.103	6092
717.155	6084
717.206	6138
717.258	6090
717.309	6076
717.361	6064
717.412	5990
717.464	6050
717.515	6018
717.567	6002
717.618	6052
717.67	5928
717.721	5958
717.773	6064
717.824	5996
717.876	5974
717.927	6010
717.979	6026
718.03	6000
718.082	5982
718.133	6020
718.185	5920
718.237	5958
718.288	5950
718.34	5928
718.391	5920
718.443	5912
718.494	5910
718.546	6022
718.597	5966
718.649	5976
718.7	5918
718.752	5946
718.803	5912
718.855	5942
718.906	5890
718.958	5952
719.009	5950
719.061	5886
719.112	5882
719.164	5848
719.215	5864
719.267	5900
719.318	5752
719.37	5826
719.421	5792
719.473	5828
719.524	5836
719.576	5760
719.627	5824
719.679	5840
719.73	5784
719.782	5826
719.833	5720
719.885	5852
719.936	5802
719.988	5746
720.039	5812
720.091	5760
720.142	5720
720.194	5834
720.245	5696
720.297	5722
720.348	5694
720.4	5734
720.451	5712
720.503	5662
720.554	5718
720.606	5742
720.657	5722
720.709	5714
720.76	5574
720.812	5600
720.863	5674
720.915	5694
720.966	5644
721.018	5664
721.069	5642
721.121	5660
721.172	5658
721.224	5540
721.275	5608
721.327	5698
721.378	5596
721.43	5570
721.481	5542
721.532	5562
721.584	5622
721.635	5608
721.687	5522
721.738	5646
721.79	5560
721.841	5536
721.893	5526
721.944	5500
721.996	5480
722.047	5560
722.099	5474
722.15	5506
722.202	5498
722.253	5464
722.305	5440
722.356	5444
722.408	5496
722.459	5446
722.511	5450
722.562	5346
722.614	5488
722.665	5422
722.716	5418
722.768	5394
722.819	5462
722.871	5474
722.922	5384
722.974	5430
723.025	5430
723.077	5388
723.128	5380
723.18	5380
723.231	5388
723.283	5408
723.334	5322
723.386	5306
723.437	5352
723.488	5348
723.54	5406
723.591	5378
723.643	5368
723.694	5336
723.746	5338
723.797	5320
723.849	5258
723.9	5316
723.952	5298
724.003	5346
724.055	5374
724.106	5294
724.157	5288
724.209	5160
724.26	5226
724.312	5322
724.363	5304
724.415	5262
724.466	5294
724.518	5280
724.569	5232
724.621	5288
724.672	5308
724.723	5226
724.775	5288
724.826	5270
724.878	5260
724.929	5260
724.981	5272
725.032	5280
725.084	5210
725.135	5152
725.187	5222
725.238	5234
725.289	5188
725.341	5186
725.392	5258
725.444	5232
725.495	5172
725.547	5150
725.598	5178
725.65	5186
725.701	5124
725.752	5172
725.804	5106
725.855	5132
725.907	5178
725.958	5144
726.01	5154
726.061	5124
726.112	5122
726.164	5100
726.215	5134
726.267	5050
726.318	5144
726.37	5122
726.421	5016
726.473	5050
726.524	5130
726.575	5058
726.627	5012
726.678	5082
726.73	5116
726.781	5090
726.833	5032
726.884	4972
726.935	5038
726.987	5074
727.038	4988
727.09	5020
727.141	4970
727.193	4966
727.244	4970
727.295	5008
727.347	5016
727.398	4938
727.45	5004
727.501	4952
727.552	4982
727.604	4966
727.655	4934
727.707	4920
727.758	4926
727.81	4984
727.861	4904
727.912	4916
727.964	4860
728.015	4794
728.067	4938
728.118	4850
728.17	4888
728.221	4870
728.272	4864
728.324	4832
728.375	4864
728.427	4798
728.478	4812
728.529	4804
728.581	4844
728.632	4822
728.684	4740
728.735	4820
728.786	4788
728.838	4782
728.889	4810
728.941	4784
728.992	4756
729.044	4718
729.095	4790
729.146	4750
729.198	4670
729.249	4724
729.301	4758
729.352	4672
729.403	4734
729.455	4568
729.506	4718
729.558	4706
729.609	4712
729.66	4672
729.712	4636
729.763	4582
729.815	4646
729.866	4626
729.917	4622
729.969	4626
730.02	4706
730.072	4510
730.123	4622
730.174	4590
730.226	4584
730.277	4522
730.329	4578
730.38	4590
730.431	4566
730.483	4604
730.534	4596
730.586	4540
730.637	4472
730.688	4528
730.74	4588
730.791	4580
730.842	4580
730.894	4512
730.945	4522
730.997	4514
731.048	4520
731.099	4544
731.151	4496
731.202	4538
731.254	4388
731.305	4478
731.356	4524
731.408	4466
731.459	4536
731.51	4498
731.562	4416
731.613	4514
731.665	4426
731.716	4524
731.767	4496
731.819	4406
731.87	4488
731.922	4466
731.973	4464
732.024	4366
732.076	4410
732.127	4436
732.178	4406
732.23	4420
732.281	4432
732.333	4388
732.384	4432
732.435	4466
732.487	4416
732.538	4382
732.589	4444
732.641	4432
732.692	4390
732.744	4384
732.795	4366
732.846	4422
732.898	4410
732.949	4376
733	4412
733.052	4358
733.103	4392
733.154	4434
733.206	4414
733.257	4326
733.309	4430
733.36	4410
733.411	4386
733.463	4340
733.514	4314
733.565	4348
733.617	4376
733.668	4430
733.719	4360
733.771	4314
733.822	4362
733.873	4382
733.925	4382
733.976	4282
734.028	4334
734.079	4364
734.13	4322
734.182	4302
734.233	4296
734.284	4304
734.336	4304
734.387	4342
734.438	4346
734.49	4328
734.541	4296
734.592	4326
734.644	4350
734.695	4292
734.747	4348
734.798	4344
734.849	4294
734.901	4334
734.952	4322
735.003	4296
735.055	4306
735.106	4312
735.157	4288
735.209	4320
735.26	4280
735.311	4272
735.363	4234
735.414	4328
735.465	4298
735.517	4226
735.568	4242
735.619	4328
735.671	4242
735.722	4288
735.773	4300
735.825	4282
735.876	4312
735.927	4302
735.979	4210
736.03	4152
736.081	4270
736.133	4300
736.184	4214
736.235	4250
736.287	4262
736.338	4338
736.389	4312
736.441	4256
736.492	4254
736.543	4308
736.595	4298
736.646	4278
736.697	4250
736.749	4316
736.8	4270
736.851	4252
736.903	4268
736.954	4272
737.005	4246
737.057	4280
737.108	4254
737.159	4330
737.211	4286
737.262	4320
737.313	4304
737.365	4310
737.416	4334
737.467	4254
737.518	4220
737.57	4388
737.621	4334
737.672	4336
737.724	4314
737.775	4272
737.826	4326
737.878	4358
737.929	4214
737.98	4316
738.032	4274
738.083	4250
738.134	4346
738.186	4242
738.237	4298
738.288	4322
738.339	4304
738.391	4236
738.442	4292
738.493	4266
738.545	4304
738.596	4238
738.647	4234
738.699	4272
738.75	4228
738.801	4268
738.853	4320
738.904	4312
738.955	4262
739.006	4266
739.058	4124
739.109	4238
739.16	4160
739.212	4242
739.263	4228
739.314	4204
739.366	4186
739.417	4174
739.468	4200
739.519	4176
739.571	4218
739.622	4250
739.673	4164
739.725	4154
739.776	4154
739.827	4114
739.878	4122
739.93	4166
739.981	4156
740.032	4164
740.084	4064
740.135	4044
740.186	4056
740.237	4104
740.289	4112
740.34	3990
740.391	4040
740.443	4002
740.494	4052
740.545	4050
740.596	4028
740.648	4034
740.699	3980
740.75	4064
740.802	3926
740.853	4024
740.904	3984
740.956	4016
741.007	4014
741.058	3968
741.109	3940
741.161	3982
741.212	3998
741.263	3922
741.314	3966
741.366	3968
741.417	3968
741.468	3922
741.52	3878
741.571	3896
741.622	4002
741.673	3942
741.725	3968
741.776	3856
741.827	3938
741.878	3864
741.93	3958
741.981	3892
742.032	3930
742.083	3876
742.135	3854
742.186	3882
742.237	3900
742.289	3828
742.34	3868
742.391	3900
742.442	3872
742.494	3838
742.545	3840
742.596	3890
742.647	3814
742.699	3848
742.75	3776
742.801	3794
742.852	3802
742.904	3826
742.955	3812
743.006	3824
743.057	3788
743.109	3772
743.16	3792
743.211	3764
743.263	3780
743.314	3778
743.365	3736
743.416	3740
743.468	3760
743.519	3846
743.57	3728
743.621	3742
743.672	3754
743.724	3738
743.775	3750
743.826	3678
743.878	3662
743.929	3716
743.98	3642
744.031	3732
744.083	3662
744.134	3690
744.185	3744
744.236	3734
744.287	3680
744.339	3726
744.39	3742
744.441	3712
744.492	3714
744.544	3670
744.595	3664
744.646	3650
744.697	3678
744.749	3672
744.8	3680
744.851	3712
744.902	3650
744.954	3644
745.005	3608
745.056	3610
745.107	3602
745.159	3594
745.21	3630
745.261	3590
745.312	3660
745.363	3620
745.415	3666
745.466	3580
745.517	3628
745.568	3596
745.62	3588
745.671	3568
745.722	3526
745.773	3526
745.824	3566
745.876	3564
745.927	3604
745.978	3564
746.029	3610
746.081	3584
746.132	3604
746.183	3582
746.234	3618
746.285	3554
746.337	3524
746.388	3566
746.439	3520
746.49	3538
746.542	3494
746.593	3508
746.644	3542
746.695	3482
746.746	3524
746.798	3518
746.849	3558
746.9	3468
746.951	3586
747.003	3502
747.054	3494
747.105	3490
747.156	3508
747.207	3468
747.259	3474
747.31	3436
747.361	3402
747.412	3498
747.463	3382
747.515	3476
747.566	3538
747.617	3498
747.668	3450
747.719	3468
747.771	3470
747.822	3452
747.873	3430
747.924	3454
747.975	3460
748.027	3458
748.078	3390
748.129	3454
748.18	3454
748.231	3460
748.283	3418
748.334	3436
748.385	3480
748.436	3434
748.487	3380
748.539	3436
748.59	3388
748.641	3392
748.692	3416
748.743	3468
748.795	3412
748.846	3430
748.897	3364
748.948	3422
748.999	3370
749.05	3360
749.102	3374
749.153	3390
749.204	3396
749.255	3332
749.306	3332
749.358	3428
749.409	3360
749.46	3342
749.511	3382
749.562	3332
749.614	3366
749.665	3356
749.716	3356
749.767	3390
749.818	3336
749.869	3304
749.921	3326
749.972	3318
750.023	3268
750.074	3328
750.125	3314
750.177	3318
750.228	3326
750.279	3302
750.33	3276
750.381	3358
750.432	3304
750.484	3282
750.535	3320
750.586	3280
750.637	3254
750.688	3186
750.739	3254
750.791	3274
750.842	3298
750.893	3226
750.944	3230
750.995	3216
751.046	3286
751.098	3198
751.149	3248
751.2	3254
751.251	3228
751.302	3294
751.353	3186
751.404	3206
751.456	3226
751.507	3246
751.558	3188
751.609	3130
751.66	3192
751.711	3186
751.763	3162
751.814	3196
751.865	3188
751.916	3192
751.967	3130
752.018	3190
752.07	3156
752.121	3176
752.172	3204
752.223	3152
752.274	3148
752.325	3134
752.376	3138
752.428	3154
752.479	3146
752.53	3184
752.581	3126
752.632	3168
752.683	3146
752.734	3058
752.786	3150
752.837	3128
752.888	3104
752.939	3116
752.99	3122
753.041	3110
753.092	3036
753.144	3120
753.195	3118
753.246	3078
753.297	3074
753.348	3062
753.399	3070
753.45	3040
753.502	3046
753.553	3050
753.604	3042
753.655	3036
753.706	3074
753.757	3044
753.808	3054
753.859	3064
753.911	3022
753.962	3012
754.013	3006
754.064	3062
754.115	2986
754.166	2962
754.217	3016
754.269	3014
754.32	2956
754.371	3040
754.422	3006
754.473	2996
754.524	3002
754.575	3034
754.626	2980
754.678	2976
754.729	3000
754.78	3032
754.831	3002
754.882	2982
754.933	3010
754.984	2944
755.035	2912
755.086	3026
755.138	2996
755.189	2936
755.24	2936
755.291	2980
755.342	2942
755.393	2902
755.444	2958
755.495	2932
755.547	3020
755.598	2910
755.649	2890
755.7	2986
755.751	2954
755.802	2904
755.853	2900
755.904	2892
755.955	2944
756.006	2930
756.058	2916
756.109	2884
756.16	2878
756.211	2920
756.262	2930
756.313	2934
756.364	2850
756.415	2858
756.466	2834
756.518	2902
756.569	2840
756.62	2874
756.671	2882
756.722	2902
756.773	2908
756.824	2842
756.875	2834
756.926	2844
756.977	2844
757.029	2882
757.08	2850
757.131	2782
757.182	2854
757.233	2872
757.284	2866
757.335	2814
757.386	2866
757.437	2816
757.488	2832
757.539	2810
757.59	2744
757.642	2822
757.693	2788
757.744	2760
757.795	2824
757.846	2772
757.897	2786
757.948	2714
757.999	2778
758.05	2758
758.101	2746
758.152	2764
758.203	2784
758.255	2762
758.306	2760
758.357	2774
758.408	2792
758.459	2778
758.51	2734.26
758.561	2788.38
758.612	2728.99
758.663	2707.29
758.714	2721.23
758.765	2763.23
758.816	2746.99
758.867	2670.07
758.919	2712.51
758.97	2727.56
759.021	2700.62
759.072	2698.93
759.123	2716.18
759.174	2722.25
759.225	2731.92
759.276	2694.02
759.327	2735.35
759.378	2709.91
759.429	2686.99
759.48	2662.11
759.531	2688.98
759.582	2619.9
759.633	2633.57
759.685	2710.71
759.736	2607.26
759.787	2636.08
759.838	2692.43
759.889	2682.24
759.94	2627.74
759.991	2647.02
760.042	2636.15
760.093	2653.89
760.144	2641.9
760.195	2641.17
760.246	2612.93
760.297	2637.65
760.348	2624.87
760.399	2620.93
760.45	2599.6
760.501	2637.1
760.552	2628.15
760.603	2612.44
760.655	2660.89
760.706	2592.48
760.757	2564.73
760.808	2598.54
760.859	2605.94
760.91	2614.67
760.961	2598.53
761.012	2589.15
761.063	2598.01
761.114	2571.56
761.165	2564.44
761.216	2592.56
761.267	2592.79
761.318	2576.14
761.369	2569.8
761.42	2538.82
761.471	2601.55
761.522	2581.6
761.573	2567.83
761.624	2548.62
761.675	2560.35
761.726	2567.59
761.777	2556.47
761.828	2542.04
761.88	2528.53
761.931	2559.66
761.982	2548.87
762.033	2549.55
762.084	2563.66
762.135	2550.2
762.186	2554.8
762.237	2574.47
762.288	2525.36
762.339	2523.4
762.39	2494.35
762.441	2440.06
762.492	2509.98
762.543	2500.79
762.594	2513.25
762.645	2479.73
762.696	2520.16
762.747	2495.25
762.798	2471.89
762.849	2442.01
762.9	2519.81
762.951	2496.22
763.002	2472.47
763.053	2499.61
763.104	2457.21
763.155	2462.6
763.206	2447.01
763.257	2422.34
763.308	2423.49
763.359	2426.13
763.41	2444.32
763.461	2449.73
763.512	2464.86
763.563	2466.16
763.614	2455.59
763.665	2456.29
763.678	2458
763.729	2442
763.78	2390
763.832	2372
763.883	2434
763.934	2410
763.986	2434
764.037	2400
764.088	2456
764.139	2418
764.191	2398
764.242	2390
764.293	2392
764.345	2398
764.396	2438
764.447	2358
764.498	2364
764.55	2394
764.601	2366
764.652	2380
764.704	2352
764.755	2404
764.806	2352
764.857	2388
764.909	2386
764.96	2408
765.011	2330
765.062	2372
765.114	2374
765.165	2362
765.216	2358
765.268	2346
765.319	2386
765.37	2392
765.421	2352
765.473	2362
765.524	2350
765.575	2352
765.626	2356
765.678	2306
765.729	2324
765.78	2324
765.831	2360
765.883	2314
765.934	2304
765.985	2310
766.036	2300
766.088	2302
766.139	2294
766.19	2312
766.242	2334
766.293	2272
766.344	2260
766.395	2246
766.447	2266
766.498	2314
766.549	2286
766.6	2248
766.652	2248
766.703	2272
766.754	2292
766.805	2228
766.857	2282
766.908	2282
766.959	2270
767.01	2218
767.062	2246
767.113	2272
767.164	2298
767.215	2272
767.267	2232
767.318	2194
767.369	2234
767.42	2230
767.472	2206
767.523	2218
767.574	2208
767.625	2166
767.677	2212
767.728	2288
767.779	2224
767.83	2208
767.882	2184
767.933	2232
767.984	2226
768.035	2186
768.087	2184
768.138	2214
768.189	2202
768.24	2174
768.292	2164
768.343	2180
768.394	2180
768.445	2146
768.497	2172
768.548	2162
768.599	2152
768.65	2128
768.701	2104
768.753	2154
768.804	2118
768.855	2078
768.906	2146
768.958	2126
769.009	2132
769.06	2170
769.111	2120
769.163	2148
769.214	2126
769.265	2134
769.316	2130
769.367	2062
769.419	2078
769.47	2140
769.521	2108
769.572	2144
769.624	2084
769.675	2118
769.726	2084
769.777	2084
769.828	2080
769.88	2092
769.931	2084
769.982	2088
770.033	2064
770.085	2124
770.136	2090
770.187	2076
770.238	2072
770.289	2056
770.341	2074
770.392	2078
770.443	2088
770.494	2096
770.546	2056
770.597	2040
770.648	1974
770.699	2018
770.75	2034
770.802	2012
770.853	2026
770.904	2048
770.955	1994
771.006	1996
771.058	2010
771.109	2010
771.16	1996
771.211	2022
771.263	2020
771.314	2002
771.365	1978
771.416	2012
771.467	2018
771.519	1998
771.57	1974
771.621	1942
771.672	1988
771.723	1976
771.775	1964
771.826	1930
771.877	1988
771.928	1946
771.979	2004
772.031	1944
772.082	1990
772.133	1956
772.184	1984
772.235	1978
772.287	1966
772.338	1912
772.389	1928
772.44	1924
772.491	1940
772.543	1908
772.594	1896
772.645	1930
772.696	1932
772.747	1940
772.799	1916
772.85	1934
772.901	1938
772.952	1896
773.003	1876
773.055	1858
773.106	1934
773.157	1890
773.208	1900
773.259	1886
773.31	1866
773.362	1854
773.413	1874
773.464	1910
773.515	1860
773.566	1882
773.618	1870
773.669	1876
773.72	1888
773.771	1802
773.822	1912
773.873	1846
773.925	1810
773.976	1856
774.027	1826
774.078	1852
774.129	1786
774.18	1872
774.232	1848
774.283	1820
774.334	1844
774.385	1792
774.436	1882
774.488	1794
774.539	1806
774.59	1808
774.641	1794
774.692	1842
774.743	1788
774.795	1764
774.846	1802
774.897	1772
774.948	1766
774.999	1790
775.05	1800
775.102	1766
775.153	1796
775.204	1828
775.255	1798
775.306	1732
775.357	1778
775.409	1744
775.46	1810
775.511	1774
775.562	1778
775.613	1788
775.664	1758
775.716	1804
775.767	1750
775.818	1728
775.869	1746
775.92	1760
775.971	1760
776.023	1752
776.074	1754
776.125	1744
776.176	1700
776.227	1716
776.278	1724
776.329	1730
776.381	1752
776.432	1732
776.483	1684
776.534	1698
776.585	1732
776.636	1726
776.688	1698
776.739	1722
776.79	1660
776.841	1700
776.892	1706
776.943	1718
776.994	1670
777.046	1724
777.097	1684
777.148	1670
777.199	1694
777.25	1712
777.301	1668
777.352	1668
777.404	1702
777.455	1680
777.506	1650
777.557	1640
777.608	1626
777.659	1664
777.71	1644
777.762	1666
777.813	1662
777.864	1682
777.915	1654
777.966	1648
778.017	1658
778.068	1652
778.12	1644
778.171	1620
778.222	1642
778.273	1620
778.324	1656
778.375	1692
778.426	1644
778.477	1640
778.529	1578
778.58	1616
778.631	1586
778.682	1572
778.733	1568
778.784	1624
778.835	1624
778.886	1602
778.938	1576
778.989	1618
779.04	1590
779.091	1572
779.142	1616
779.193	1614
779.244	1588
779.295	1598
779.347	1572
779.398	1562
779.449	1576
779.5	1602
779.551	1544
779.602	1576
779.653	1526
779.704	1526
779.755	1586
779.807	1562
779.858	1566
779.909	1540
779.96	1522
780.011	1556
780.062	1574
780.113	1546
780.164	1580
780.216	1520
780.267	1558
780.318	1574
780.369	1546
780.42	1536
780.471	1538
780.522	1528
780.573	1516
780.624	1492
780.675	1534
780.727	1540
780.778	1522
780.829	1500
780.88	1544
780.931	1528
780.982	1500
781.033	1538
781.084	1480
781.135	1498
781.187	1516
781.238	1508
781.289	1508
781.34	1496
781.391	1534
781.442	1478
781.493	1478
781.544	1530
781.595	1492
781.646	1480
781.698	1522
781.749	1466
781.8	1498
781.851	1484
781.902	1484
781.953	1464
782.004	1472
782.055	1456
782.106	1472
782.157	1446
782.208	1458
782.26	1478
782.311	1466
782.362	1462
782.413	1440
782.464	1460
782.515	1454
782.566	1454
782.617	1466
782.668	1420
782.719	1444
782.77	1442
782.821	1452
782.872	1422
782.924	1464
782.975	1418
783.026	1426
783.077	1390
783.128	1446
783.179	1408
783.23	1412
783.281	1412
783.332	1440
783.383	1438
783.434	1426
783.485	1414
783.536	1394
783.588	1362
783.639	1426
783.69	1410
783.741	1376
783.792	1400
783.843	1408
783.894	1408
783.945	1402
783.996	1430
784.047	1350
784.098	1378
784.149	1374
784.2	1400
784.252	1368
784.303	1336
784.354	1392
784.405	1314
784.456	1368
784.507	1344
784.558	1344
784.609	1362
784.66	1408
784.711	1392
784.762	1334
784.813	1338
784.864	1356
784.915	1372
784.966	1334
785.017	1350
785.068	1330
785.12	1354
785.171	1348
785.222	1374
785.273	1340
785.324	1354
785.375	1314
785.426	1336
785.477	1300
785.528	1316
785.579	1342
785.63	1316
785.681	1320
785.732	1306
785.783	1306
785.834	1314
785.885	1338
785.936	1286
785.987	1300
786.038	1324
786.089	1302
786.141	1310
786.192	1304
786.243	1320
786.294	1268
786.345	1282
786.396	1284
786.447	1318
786.498	1308
786.549	1254
786.6	1286
786.651	1292
786.702	1266
786.753	1280
786.804	1226
786.855	1290
786.906	1288
786.957	1244
787.008	1288
787.059	1238
787.11	1304
787.161	1262
787.212	1288
787.263	1284
787.314	1236
787.365	1246
787.416	1250
787.467	1242
787.518	1248
787.57	1274
787.621	1240
787.672	1268
787.723	1232
787.774	1254
787.825	1222
787.876	1232
787.927	1240
787.978	1256
788.029	1238
788.08	1228
788.131	1228
788.182	1206
788.233	1214
788.284	1196
788.335	1214
788.386	1224
788.437	1206
788.488	1222
788.539	1230
788.59	1182
788.641	1180
788.692	1186
788.743	1206
788.794	1214
788.845	1200
788.896	1214
788.947	1176
788.998	1194
789.049	1182
789.1	1202
789.151	1220
789.202	1196
789.253	1168
789.304	1166
789.355	1168
789.406	1198
789.457	1194
789.508	1200
789.559	1164
789.61	1146
789.661	1168
789.712	1172
789.763	1168
789.814	1180
789.865	1156
789.916	1152
789.967	1148
790.018	1166
790.069	1162
790.12	1136
790.171	1156
790.222	1158
790.273	1156
790.324	1132
790.375	1166
790.426	1140
790.477	1160
790.528	1164
790.579	1142
790.63	1130
790.681	1120
790.732	1130
790.783	1126
790.834	1114
790.885	1132
790.936	1120
790.987	1126
791.038	1128
791.089	1148
791.14	1142
791.191	1118
791.242	1114
791.293	1078
791.344	1112
791.395	1120
791.446	1112
791.497	1120
791.548	1098
791.599	1124
791.65	1114
791.701	1074
791.752	1078
791.803	1122
791.854	1116
791.905	1094
791.956	1116
792.007	1104
792.058	1074
792.109	1110
792.16	1102
792.211	1090
792.262	1096
792.313	1100
792.363	1068
792.414	1088
792.465	1062
792.516	1054
792.567	1094
792.618	1062
792.669	1080
792.72	1080
792.771	1082
792.822	1056
792.873	1052
792.924	1064
792.975	1054
793.026	1084
793.077	1066
793.128	1024
793.179	1048
793.23	1050
793.281	1014
793.332	1038
793.383	1040
793.434	1062
793.485	1030
793.536	1030
793.587	1022
793.638	1032
793.689	1032
793.74	1034
793.79	1038
793.841	1044
793.892	1018
793.943	1066
793.994	1040
794.045	1034
794.096	1002
794.147	1034
794.198	1008
794.249	1024
794.3	990
794.351	1018
794.402	1024
794.453	1012
794.504	1020
794.555	998
794.606	1020
794.657	1000
794.708	1000
794.758	998
794.809	1000
794.86	1014
794.911	1022
794.962	1012
795.013	986
795.064	974
795.115	1002
795.166	1000
795.217	1004
795.268	972
795.319	1024
795.37	990
795.421	972
795.472	966
795.523	1008
795.573	992
795.624	998
795.675	974
795.726	996
795.777	936
795.828	944
795.879	960
795.93	984
795.981	970
796.032	972
796.083	936
796.134	980
796.185	966
796.236	966
796.286	936
796.337	936
796.388	918
796.439	954
796.49	938
796.541	952
796.592	948
796.643	948
796.694	972
796.745	930
796.796	934
796.847	950
796.897	922
796.948	926
796.999	930
797.05	940
797.101	932
797.152	964
797.203	918
797.254	940
797.305	926
797.356	944
797.407	924
797.458	960
797.508	930
797.559	952
797.61	894
797.661	916
797.712	922
797.763	914
797.814	902
797.865	932
797.916	884
797.967	906
798.018	956
798.068	926
798.119	940
798.17	864
798.221	910
798.272	874
798.323	890
798.374	916
798.425	880
798.476	894
798.526	886
798.577	894
798.628	870
798.679	892
798.73	872
798.781	902
798.832	890
798.883	870
798.934	894
798.984	888
799.035	868
799.086	856
799.137	870
799.188	892
799.239	872
799.29	864
799.341	878
799.392	862
799.443	862
799.493	888
799.544	866
799.595	856
799.646	866
799.697	862
799.748	872
799.799	878
799.85	882
799.9	846
799.951	840
800.002	862
800.053	822
800.104	852
800.155	824
800.206	808
800.257	864
800.307	850
800.358	854
800.409	818
800.46	868
800.511	834
800.562	838
800.613	840
800.664	816
800.714	840
800.765	836
800.816	818
800.867	832
800.918	822
800.969	852
801.02	832
801.07	832
801.121	800
801.172	830
801.223	828
801.274	838
801.325	796
801.376	806
801.427	790
801.477	792
801.528	800
801.579	790
801.63	812
801.681	802
801.732	788
801.783	786
801.833	808
801.884	796
801.935	806
801.986	782
802.037	800
802.088	790
802.139	802
802.189	798
802.24	808
802.291	808
802.342	796
802.393	812
802.444	764
802.495	762
802.545	812
802.596	762
802.647	788
802.698	782
802.749	784
802.8	798
802.85	776
802.901	808
802.952	752
803.003	750
803.054	766
803.105	754
803.155	758
803.206	792
803.257	778
803.308	794
803.359	768
803.41	806
803.46	796
803.511	756
803.562	780
803.613	758
803.664	772
803.715	760
803.765	742
803.816	744
803.867	750
803.918	750
803.969	730
804.02	718
804.07	744
804.121	768
804.172	752
804.223	742
804.274	736
804.325	744
804.375	742
804.426	738
804.477	740
804.528	748
804.579	746
804.63	750
804.68	760
804.731	698
804.782	738
804.833	736
804.884	714
804.934	734
804.985	712
805.036	722
805.087	732
805.138	746
805.188	738
805.239	742
805.29	698
805.341	716
805.392	720
805.443	712
805.493	720.066
805.544	731.976
805.595	729.563
805.646	731.111
805.697	721.183
805.747	697.418
805.798	714.65
805.849	730.88
805.9	698.339
805.951	700.982
806.001	716.817
806.052	736.156
806.103	704.767
806.154	676.349
806.205	716.222
806.255	697.606
806.306	706.82
806.357	709.61
806.408	697.99
806.459	718.435
806.509	717.336
806.56	703.385
806.611	714.294
806.662	704.006
806.713	688.711
806.763	705.292
806.814	720.875
806.865	679.646
806.916	691.386
806.967	686.948
807.017	717.063
807.068	698.562
807.119	681.662
807.17	672
807.22	674.69
807.271	687.859
807.322	674.441
807.373	688.316
807.424	673.178
807.474	684.724
807.525	671.079
807.576	678.222
807.627	682.518
807.678	687.845
807.728	683.015
807.779	663.98
807.83	676.932
807.881	680.439
807.931	680.992
807.982	665.519
808.033	673.388
808.084	676.257
808.135	669.47
808.185	663.902
808.236	657.025
808.287	661.476
808.338	652.586
808.388	678.931
808.439	666.231
808.49	681.152
808.541	667.577
808.591	633.906
808.642	643.298
808.693	658.878
808.744	642.246
808.795	651.711
808.845	663.119
808.896	669.228
808.947	648.677
808.998	660.373
809.048	639.457
809.099	639.111
809.15	638.166
809.201	639.07
809.251	661.255
809.302	668.853
809.353	647.538
809.404	655.526
809.454	640.681
809.505	651.086
809.556	643.51
809.607	637.913
809.658	624.546
809.708	637.596
809.759	623.601
809.81	614.591
809.861	618.461
809.911	641.112
809.962	625.886
810.013	632.837
810.064	631.955
810.114	626.934
810.165	624.931
810.216	639.366
810.267	626.204
810.317	634.492
810.368	630.153
810.419	620.71
810.469	622.243
810.52	645.027
810.571	603.332
810.622	624.831
810.627	628
810.678	626
810.729	638
810.78	628
810.831	604
810.882	622
810.933	616
810.984	604
811.035	616
811.086	602
811.137	612
811.188	614
811.239	616
811.29	616
811.341	620
811.392	606
811.443	594
811.494	624
811.545	594
811.596	618
811.648	608
811.699	618
811.75	638
811.801	610
811.852	586
811.903	588
811.954	600
812.005	578
812.056	596
812.107	598
812.158	606
812.209	572
812.26	596
812.311	586
812.362	590
812.413	586
812.464	612
812.515	608
812.566	586
812.617	598
812.668	576
812.719	580
812.77	570
812.821	614
812.872	578
812.923	580
812.974	560
813.025	564
813.076	580
813.127	584
813.178	582
813.229	598
813.28	598
813.331	588
813.382	576
813.433	566
813.484	540
813.535	558
813.586	580
813.637	560
813.688	564
813.739	562
813.79	594
813.841	570
813.892	586
813.943	552
813.994	550
814.045	574
814.096	562
814.147	562
814.198	558
814.249	572
814.3	566
814.351	570
814.402	564
814.453	560
814.504	528
814.555	558
814.606	556
814.657	556
814.708	560
814.759	548
814.81	542
814.861	554
814.912	548
814.963	546
815.014	556
815.065	534
815.116	548
815.167	548
815.217	552
815.268	578
815.319	552
815.37	548
815.421	542
815.472	514
815.523	528
815.574	528
815.625	516
815.676	544
815.727	558
815.778	512
815.829	538
815.88	540
815.931	542
815.982	546
816.033	540
816.084	524
816.135	520
816.186	532
816.237	544
816.288	526
816.339	516
816.39	546
816.441	504
816.492	536
816.543	512
816.594	520
816.645	528
816.696	500
816.747	542
816.798	524
816.849	516
816.9	524
816.951	526
817.001	508
817.052	540
817.103	532
817.154	526
817.205	508
817.256	500
817.307	528
817.358	518
817.409	502
817.46	516
817.511	502
817.562	510
817.613	478
817.664	522
817.715	514
817.766	514
817.817	520
817.868	534
817.919	506
817.97	496
818.021	504
818.071	490
818.122	516
818.173	496
818.224	480
818.275	514
818.326	498
818.377	502
818.428	528
818.479	500
818.53	488
818.581	506
818.632	496
818.683	522
818.734	480
818.785	488
818.836	520
818.887	484
818.938	482
818.988	470
819.039	494
819.09	492
819.141	488
819.192	464
819.243	512
819.294	476
819.345	480
819.396	504
819.447	496
819.498	486
819.549	474
819.6	482
819.651	490
819.702	486
819.753	482
819.803	508
819.854	458
819.905	462
819.956	470
820.007	478
820.058	470
820.109	484
820.16	478
820.211	484
820.262	468
820.313	468
820.364	470
820.415	468
820.465	456
820.516	484
820.567	456
820.618	470
820.669	478
820.72	470
820.771	456
820.822	460
820.873	464
820.924	458
820.975	468
821.026	472
821.076	478
821.127	464
821.178	468
821.229	448
821.28	468
821.331	452
821.382	472
821.433	444
821.484	444
821.535	452
821.586	456
821.637	444
821.687	442
821.738	460
821.789	478
821.84	452
821.891	436
821.942	460
821.993	460
822.044	458
822.095	454
822.146	430
822.196	442
822.247	450
822.298	440
822.349	452
822.4	468
822.451	450
822.502	442
822.553	440
822.604	438
822.655	462
822.706	446
822.756	416
822.807	442
822.858	418
822.909	468
822.96	428
823.011	450
823.062	438
823.113	444
823.164	414
823.214	436
823.265	428
823.316	450
823.367	434
823.418	432
823.469	418
823.52	432
823.571	436
823.622	448
823.672	434
823.723	416
823.774	450
823.825	438
823.876	412
823.927	428
823.978	426
824.029	458
824.08	428
824.13	424
824.181	416
824.232	408
824.283	432
824.334	414
824.385	416
824.436	420
824.487	430
824.537	432
824.588	410
824.639	434
824.69	420
824.741	422
824.792	414
824.843	420
824.893	410
824.944	432
824.995	422
825.046	416
825.097	400
825.148	410
825.199	410
825.25	410
825.3	402
825.351	406
825.402	392
825.453	398
825.504	392
825.555	404
825.606	408
825.657	406
825.707	414
825.758	404
825.809	410
825.86	394
825.911	372
825.962	416
826.013	406
826.063	410
826.114	402
826.165	420
826.216	406
826.267	420
826.318	404
826.369	414
826.419	394
826.47	396
826.521	394
826.572	410
826.623	398
826.674	404
826.725	384
826.775	406
826.826	378
826.877	388
826.928	376
826.979	386
827.03	394
827.08	398
827.131	388
827.182	392
827.233	384
827.284	368
827.335	386
827.386	400
827.436	392
827.487	386
827.538	378
827.589	404
827.64	374
827.691	388
827.741	378
827.792	386
827.843	392
827.894	372
827.945	352
827.996	398
828.046	376
828.097	372
828.148	390
828.199	382
828.25	398
828.301	384
828.351	398
828.402	366
828.453	370
828.504	386
828.555	380
828.606	388
828.656	382
828.707	364
828.758	374
828.809	370
828.86	382
828.911	392
828.961	382
829.012	388
829.063	380
829.114	364
829.165	390
829.216	364
829.266	374
829.317	382
829.368	392
829.419	354
829.47	378
829.52	370
829.571	358
829.622	378
829.673	372
829.724	370
829.774	378
829.825	372
829.876	368
829.927	362
829.978	364
830.029	358
830.079	352
830.13	348
830.181	366
830.232	362
830.283	350
830.333	368
830.384	364
830.435	364
830.486	374
830.537	378
830.587	354
830.638	358
830.689	340
830.74	370
830.791	354
830.841	350
830.892	348
830.943	362
830.994	346
831.045	346
831.095	344
831.146	380
831.197	370
831.248	362
831.299	356
831.349	336
831.4	368
831.451	364
831.502	374
831.553	342
831.603	344
831.654	352
831.705	356
831.756	348
831.807	364
831.857	326
831.908	360
831.959	364
832.01	328
832.061	342
832.111	340
832.162	338
832.213	336
832.264	334
832.315	360
832.365	334
832.416	352
832.467	340
832.518	322
832.568	342
832.619	354
832.67	342
832.721	354
832.772	332
832.822	340
832.873	336
832.924	332
832.975	322
833.025	348
833.076	348
833.127	324
833.178	326
833.229	338
833.279	344
833.33	326
833.381	324
833.432	324
833.482	320
833.533	332
833.584	324
833.635	336
833.685	326
833.736	352
833.787	332
833.838	330
833.889	342
833.939	350
833.99	330
834.041	328
834.092	314
834.142	326
834.193	332
834.244	314
834.295	330
834.345	326
834.396	344
834.447	322
834.498	318
834.548	344
834.599	328
834.65	324
834.701	332
834.751	340
834.802	310
834.853	318
834.904	322
834.954	312
835.005	306
835.056	314
835.107	324
835.157	320
835.208	314
835.259	320
835.31	332
835.36	322
835.411	316
835.462	330
835.513	310
835.563	312
835.614	308
835.665	300
835.716	306
835.766	324
835.817	302
835.868	320
835.919	316
835.969	324
836.02	308
836.071	330
836.122	300
836.172	342
836.223	294
836.274	314
836.325	330
836.375	318
836.426	306
836.477	320
836.528	316
836.578	300
836.629	324
836.68	300
836.73	314
836.781	322
836.832	314
836.883	306
836.933	288
836.984	298
837.035	304
837.086	324
837.136	300
837.187	298
837.238	322
837.288	320
837.339	296
837.39	320
837.441	296
837.491	308
837.542	294
837.593	310
837.643	306
837.694	310
837.745	316
837.796	300
837.846	286
837.897	302
837.948	304
837.999	288
838.049	292
838.1	300
838.151	306
838.201	298
838.252	304
838.303	288
838.354	292
838.404	284
838.455	294
838.506	286
838.556	306
838.607	304
838.658	306
838.708	296
838.759	306
838.81	294
838.861	308
838.911	282
838.962	278
839.013	292
839.063	308
839.114	300
839.165	278
839.216	300
839.266	296
839.317	294
839.368	302
839.418	306
839.469	300
839.52	290
839.57	276
839.621	294
839.672	284
839.722	286
839.773	286
839.824	286
839.875	276
839.925	290
839.976	272
840.027	290
840.077	284
840.128	264
840.179	288
840.229	288
840.28	274
840.331	278
840.381	278
840.432	290
840.483	284
840.534	288
840.584	290
840.635	286
840.686	288
840.736	286
840.787	286
840.838	290
840.888	272
840.939	260
840.99	276
841.04	280
841.091	266
841.142	282
841.192	280
841.243	288
841.294	278
841.344	278
841.395	264
841.446	280
841.496	278
841.547	274
841.598	250
841.648	288
841.699	254
841.75	276
841.8	280
841.851	280
841.902	272
841.952	260
842.003	266
842.054	266
842.104	270
842.155	270
842.206	270
842.256	276
842.307	262
842.358	274
842.408	278
842.459	276
842.51	272
842.56	272
842.611	274
842.662	274
842.712	274
842.763	266
842.814	268
842.864	288
842.915	278
842.966	268
843.016	276
843.067	262
843.118	270
843.168	258
843.219	254
843.269	270
843.32	270
843.371	272
843.421	264
843.472	280
843.523	260
843.573	268
843.624	266
843.675	258
843.725	256
843.776	268
843.827	266
843.877	270
843.928	260
843.979	268
844.029	260
844.08	262
844.13	250
844.181	248
844.232	254
844.282	260
844.333	260
844.384	276
844.434	280
844.485	250
844.536	250
844.586	258
844.637	262
844.687	244
844.738	252
844.789	248
844.839	252
844.89	252
844.941	254
844.991	244
845.042	260
845.092	252
845.143	230
845.194	246
845.244	254
845.295	266
845.346	240
845.396	236
845.447	244
845.497	252
845.548	250
845.599	246
845.649	248
845.7	242
845.75	268
845.801	262
845.852	232
845.902	236
845.953	238
846.004	250
846.054	240
846.105	256
846.155	250
846.206	254
846.257	224
846.307	242
846.358	248
846.409	252
846.459	248
846.51	228
846.56	246
846.611	248
846.661	246
846.712	254
846.763	250
846.813	224
846.864	230
846.915	246
846.965	252
847.016	260
847.066	244
847.117	248
847.168	232
847.218	246
847.269	236
847.319	226
847.37	236
847.421	244
847.471	220
847.522	242
847.572	232
847.623	248
847.674	238
847.724	246
847.775	230
847.825	240
847.876	242
847.926	242
847.977	252
848.028	214
848.078	230
848.129	230
848.179	230
848.23	222
848.281	222
848.331	240
848.382	234
848.432	226
848.483	246
848.534	242
848.584	246
848.635	230
848.685	222
848.736	226
848.786	246
848.837	242
848.888	246
848.938	240
848.989	214
849.039	224
849.09	230
849.14	240
849.191	230
849.242	234
849.292	220
849.343	220
849.393	232
849.444	214
849.494	222
849.545	234
849.596	220
849.646	246
849.697	234
849.747	220
849.798	220
849.848	224
849.899	236
849.95	212
850	228
850.051	232
850.101	226
850.152	222
850.202	200
850.253	234
850.303	208
850.354	230
850.405	228
850.455	222
850.506	224
850.556	224
850.607	208
850.657	206
850.708	214
850.758	202
850.809	218
850.86	228
850.91	236
850.961	218
851.011	222
851.062	226
851.112	214
851.163	216
851.213	212
851.264	220
851.314	224
851.365	208
851.416	226
851.466	236
851.517	222
851.567	218
851.618	220
851.668	216
851.719	218
851.769	210
851.82	210
851.87	228
851.921	208
851.971	216
852.022	190
852.073	224
852.123	202
852.174	214
852.224	228
852.275	220
852.325	222.01
852.376	212.147
852.426	215.947
852.477	206.064
852.527	215.107
852.578	225.342
852.628	227.868
852.679	204.246
852.729	209.37
852.78	205.477
852.831	224.498
852.881	211.332
852.932	192.304
852.982	210.423
853.033	216.262
853.083	215.137
853.134	212.912
853.184	202.836
853.235	204.115
853.285	208.978
853.336	202.872
853.386	206.634
853.437	206.411
853.487	200
853.538	210.131
853.588	207.976
853.639	209.567
853.689	208.071
853.74	203.336
853.79	211.567
853.841	206.51
853.891	208.066
853.942	200.198
853.992	204.497
854.043	208.732
854.093	208.098
854.144	200.729
854.194	215.122
854.245	209.575
854.295	201.932
854.346	194.743
854.396	204.331
854.447	216.193
854.497	204.112
854.548	201.707
854.598	210.682
854.649	199.72
854.699	197.775
854.75	203.82
854.8	204.256
854.851	206.503
854.901	200.503
854.952	198.471
855.002	200.988
855.053	208.067
855.103	192.397
855.154	203.958
855.204	198.6
855.255	193.791
855.305	200.4
855.356	195.803
855.406	200.888
855.457	198.465
855.507	197.149
855.558	206.285
855.608	194.337
855.659	203.38
855.709	200.812
855.76	191.472
855.81	194.208
855.861	190.746
855.911	187.604
855.962	190.537
856.012	189.788
856.063	189.618
856.113	191.913
856.164	188.611
856.214	188.599
856.265	188.191
856.315	189.951
856.366	189.933
856.416	182.955
856.467	182.667
856.517	196.962
856.568	186.214
856.618	186.19
856.668	187.743
856.719	184.572
856.769	190.349
856.82	193.442
856.87	185.165
856.921	183.125
856.971	195.395
857.022	204.147
857.072	201.633
857.123	202.831
857.173	209.44
857.224	194.782
857.274	182.894
857.325	195.279
857.352	204
857.403	196
857.453	206
857.504	182
857.555	188
857.606	184
857.656	194
857.707	188
857.758	186
857.809	182
857.859	190
857.91	182
857.961	186
858.012	192
858.063	176
858.113	186
858.164	194
858.215	180
858.266	180
858.316	202
858.367	186
858.418	190
858.469	188
858.519	174
858.57	184
858.621	194
858.672	180
858.722	190
858.773	182
858.824	170
858.875	182
858.925	186
858.976	184
859.027	158
859.078	186
859.128	188
859.179	180
859.23	174
859.281	196
859.331	170
859.382	170
859.433	186
859.483	180
859.534	184
859.585	184
859.636	184
859.686	184
859.737	176
859.788	180
859.839	182
859.889	170
859.94	186
859.991	174
860.042	180
860.092	182
860.143	202
860.194	164
860.245	156
860.295	180
860.346	182
860.397	176
860.447	178
860.498	186
860.549	180
860.6	172
860.65	168
860.701	170
860.752	178
860.802	176
860.853	170
860.904	172
860.955	164
861.005	160
861.056	170
861.107	178
861.158	176
861.208	172
861.259	168
861.31	184
861.36	182
861.411	190
861.462	176
861.513	166
861.563	168
861.614	182
861.665	182
861.715	172
861.766	176
861.817	162
861.868	170
861.918	170
861.969	182
862.02	182
862.07	168
862.121	176
862.172	162
862.223	172
862.273	176
862.324	172
862.375	180
862.425	178
862.476	182
862.527	176
862.577	168
862.628	164
862.679	154
862.73	176
862.78	180
862.831	164
862.882	166
862.932	176
862.983	154
863.034	176
863.084	166
863.135	172
863.186	156
863.237	174
863.287	178
863.338	176
863.389	166
863.439	164
863.49	172
863.541	170
863.591	174
863.642	164
863.693	172
863.744	164
863.794	174
863.845	162
863.896	172
863.946	160
863.997	180
864.048	154
864.098	174
864.149	164
864.2	152
864.25	172
864.301	176
864.352	162
864.402	168
864.453	166
864.504	164
864.555	160
864.605	176
864.656	166
864.707	174
864.757	160
864.808	174
864.859	162
864.909	170
864.96	160
865.011	168
865.061	158
865.112	164
865.163	156
865.213	152
865.264	172
865.315	156
865.365	164
865.416	150
865.467	168
865.517	162
865.568	154
865.619	162
865.669	170
865.72	156
865.771	166
865.821	146
865.872	156
865.923	176
865.973	150
866.024	160
866.075	166
866.125	160
866.176	140
866.227	164
866.277	170
866.328	164
866.379	156
866.429	162
866.48	168
866.531	162
866.581	152
866.632	168
866.683	150
866.733	160
866.784	146
866.835	154
866.885	162
866.936	156
866.987	164
867.037	144
867.088	162
867.138	154
867.189	162
867.24	152
867.29	148
867.341	164
867.392	148
867.442	160
867.493	158
867.544	164
867.594	160
867.645	158
867.696	158
867.746	152
867.797	140
867.848	160
867.898	158
867.949	162
867.999	158
868.05	158
868.101	158
868.151	156
868.202	156
868.253	142
868.303	152
868.354	154
868.405	154
868.455	154
868.506	150
868.556	140
868.607	148
868.658	154
868.708	144
868.759	140
868.81	160
868.86	148
868.911	152
868.961	152
869.012	156
869.063	152
869.113	140
869.164	134
869.215	148
869.265	148
869.316	156
869.367	162
869.417	162
869.468	146
869.518	158
869.569	136
869.62	150
869.67	154
869.721	142
869.771	138
869.822	148
869.873	142
869.923	146
869.974	156
870.025	158
870.075	154
870.126	144
870.176	142
870.227	150
870.278	136
870.328	144
870.379	138
870.43	150
870.48	134
870.531	142
870.581	146
870.632	138
870.683	140
870.733	140
870.784	138
870.834	152
870.885	130
870.936	148
870.986	140
871.037	144
871.087	130
871.138	148
871.189	140
871.239	136
871.29	128
871.34	130
871.391	146
871.442	154
871.492	136
871.543	150
871.593	146
871.644	136
871.695	142
871.745	142
871.796	144
871.846	140
871.897	146
871.948	128
871.998	140
872.049	146
872.099	126
872.15	144
872.201	148
872.251	128
872.302	134
872.352	130
872.403	142
872.453	136
872.504	132
872.555	132
872.605	140
872.656	134
872.706	130
872.757	140
872.808	142
872.858	130
872.909	142
872.959	148
873.01	144
873.06	138
873.111	144
873.162	154
873.212	134
873.263	128
873.313	142
873.364	134
873.415	146
873.465	136
873.516	130
873.566	136
873.617	144
873.667	140
873.718	126
873.769	134
873.819	136
873.87	136
873.92	150
873.971	126
874.021	130
874.072	130
874.123	120
874.173	144
874.224	132
874.274	132
874.325	140
874.375	136
874.426	138
874.477	142
874.527	136
874.578	130
874.628	132
874.679	132
874.729	126
874.78	140
874.83	126
874.881	132
874.932	124
874.982	132
875.033	136
875.083	128
875.134	128
875.184	130
875.235	130
875.285	122
875.336	132
875.387	134
875.437	126
875.488	142
875.538	132
875.589	142
875.639	112
875.69	120
875.74	134
875.791	144
875.841	124
875.892	112
875.943	128
875.993	132
876.044	126
876.094	128
876.145	134
876.195	124
876.246	128
876.296	118
876.347	130
876.397	128
876.448	128
876.499	126
876.549	140
876.6	126
876.65	130
876.701	122
876.751	130
876.802	126
876.852	120
876.903	132
876.953	126
877.004	120
877.054	114
877.105	136
877.155	126
877.206	116
877.257	116
877.307	122
877.358	134
877.408	106
877.459	122
877.509	134
877.56	124
877.61	128
877.661	122
877.711	134
877.762	136
877.812	128
877.863	130
877.913	138
877.964	132
878.014	116
878.065	126
878.115	134
878.166	142
878.216	118
878.267	120
878.318	134
878.368	138
878.419	122
878.469	124
878.52	124
878.57	126
878.621	128
878.671	132
878.722	124
878.772	114
878.823	128
878.873	110
878.924	118
878.974	132
879.025	116
879.075	128
879.126	126
879.176	100
879.227	116
879.277	122
879.328	128
879.378	114
879.429	124
879.479	120
879.53	108
879.58	126
879.631	122
879.681	126
879.732	122
879.782	120
879.833	114
879.883	114
879.934	112
879.984	116
880.035	122
880.085	122
880.136	120
880.186	128
880.237	114
880.287	116
880.338	120
880.388	114
880.439	116
880.489	120
880.54	120
880.59	114
880.641	110
880.691	122
880.742	118
880.792	136
880.842	116
880.893	118
880.943	120
880.994	114
881.044	106
881.095	120
881.145	120
881.196	132
881.246	112
881.297	120
881.347	108
881.398	108
881.448	130
881.499	118
881.549	134
881.6	126
881.65	120
881.701	118
881.751	108
881.802	112
881.852	128
881.902	114
881.953	128
882.003	114
882.054	118
882.104	118
882.155	114
882.205	112
882.256	114
882.306	124
882.357	120
882.407	120
882.458	116
882.508	112
882.559	118
882.609	110
882.659	118
882.71	104
882.76	120
882.811	112
882.861	116
882.912	104
882.962	118
883.013	112
883.063	118
883.114	116
883.164	114
883.214	118
883.265	120
883.315	98
883.366	116
883.416	116
883.467	116
883.517	106
883.568	114
883.618	112
883.669	108
883.719	114
883.769	112
883.82	106
883.87	122
883.921	114
883.971	106
884.022	116
884.072	110
884.123	118
884.173	108
884.223	122
884.274	110
884.324	120
884.375	98
884.425	126
884.476	116
884.526	108
884.577	110
884.627	116
884.677	104
884.728	118
884.778	114
884.829	106
884.879	100
884.93	114
884.98	108
885.03	112
885.081	102
885.131	104
885.182	116
885.232	108
885.283	110
885.333	94
885.383	122
885.434	114
885.484	114
885.535	118
885.585	124
885.635	110
885.686	110
885.736	108
885.787	126
885.837	104
885.888	102
885.938	98
885.988	104
886.039	100
886.089	112
886.14	100
886.19	110
886.241	110
886.291	96
886.341	88
886.392	100
886.442	98
886.493	106
886.543	104
886.593	110
886.644	92
886.694	108
886.745	106
886.795	88
886.845	104
886.896	102
886.946	94
886.997	112
887.047	110
887.097	92
887.148	100
887.198	98
887.249	106
887.299	104
887.349	96
887.4	106
887.45	104
887.501	98
887.551	108
887.602	110
887.652	102
887.702	102
887.753	104
887.803	108
887.853	110
887.904	94
887.954	104
888.005	102
888.055	102
888.105	100
888.156	100
888.206	98
888.257	100
888.307	98
888.357	108
888.408	100
888.458	94
888.509	102
888.559	102
888.609	96
888.66	98
888.71	92
888.76	100
888.811	100
888.861	104
888.912	100
888.962	102
889.012	96
889.063	94
889.113	104
889.163	102
889.214	96
889.264	98
889.315	96
889.365	104
889.415	102
889.466	92
889.516	92
889.566	106
889.617	108
889.667	94
889.718	96
889.768	96
889.818	104
889.869	106
889.919	94
889.969	100
890.02	102
890.07	90
890.12	98
890.171	98
890.221	102
890.272	96
890.322	98
890.372	100
890.423	100
890.473	88
890.523	102
890.574	94
890.624	106
890.674	102
890.725	106
890.775	100
890.826	92
890.876	106
890.926	90
890.977	94
891.027	92
891.077	98
891.128	92
891.178	100
891.228	92
891.279	100
891.329	106
891.379	86
891.43	106
891.48	94
891.53	88
891.581	90
891.631	86
891.681	96
891.732	98
891.782	96
891.832	88
891.883	100
891.933	92
891.983	100
892.034	92
892.084	94
892.134	88
892.185	96
892.235	96
892.286	100
892.336	90
892.386	90
892.437	92
892.487	92
892.537	88
892.587	94
892.638	94
892.688	98
892.738	82
892.789	92
892.839	92
892.889	90
892.94	84
892.99	98
893.04	96
893.091	96
893.141	94
893.191	84
893.242	92
893.292	90
893.342	94
893.393	96
893.443	88
893.493	86
893.544	86
893.594	88
893.644	98
893.695	88
893.745	96
893.795	86
893.846	92
893.896	86
893.946	96
893.996	90
894.047	98
894.097	72
894.147	86
894.198	86
894.248	88
894.298	90
894.349	94
894.399	80
894.449	98
894.5	96
894.55	84
894.6	90
894.65	86
894.701	84
894.751	94
894.801	74
894.852	96
894.902	92
894.952	86
895.003	88
895.053	82
895.103	86
895.153	96
895.204	90
895.254	88
895.304	92
895.355	92
895.405	92
895.455	80
895.505	88
895.556	90
895.606	88
895.656	76
895.707	86
895.757	80
895.807	92
895.858	86
895.908	76
895.958	90
896.008	82
896.059	78
896.109	88
896.159	82
896.21	92
896.26	80
896.31	92
896.36	78
896.411	88
896.461	72
896.511	86
896.561	78
896.612	94
896.662	74
896.712	82
896.763	86
896.813	84
896.863	86
896.913	80
896.964	78
897.014	74
897.064	86
897.115	88
897.165	82
897.215	90
897.265	86
897.316	88
897.366	82
897.416	82
897.466	82
897.517	80
897.567	78
897.617	88
897.667	76
897.718	76
897.768	78
897.818	80
897.868	78
897.919	78
897.969	88
898.019	70
898.069	94
898.12	84
898.17	88
898.22	76
898.27	80
898.321	74
898.371	84
898.421	72
898.471	86
898.522	78
898.572	84
898.622	90
898.672	82
898.723	74
898.773	74
898.823	80
898.873	80
898.924	82
898.974	76
899.024	82
899.074	74
899.125	78
899.175	76
899.225	74
899.275	76
899.326	86
899.376	72
899.426	76
899.476	88
899.527	86
899.577	88
899.627	74
899.677	84
899.728	82
899.778	86
899.828	80
899.878	74
899.928	74
899.979	82
