#Acq. time (s)=	5
#Accumulations=	2
#Range (nm)=	520...900
#Windows=	8
#Auto scanning=	Off
#Autofocus=	Off
#AutoExposure=	Off
#Spike filter=	Multiple accum.
#Delay time (s)=	0
#Binning=	1
#Readout mode=	Signal
#DeNoise=	Off
#ICS correction=	Off
#Dark correction=	Off
#Inst. Process=	Off
#Detector temperature (°C)=	-59.98
#Instrument=	LabRAM HR Evol
#Detector=	Syncerity OE
#Objective=	x50_VIS
#Grating=	600 (500nm)
#ND Filter=	10%
#Laser=	514nm_Edge
#Hole=	199.981
#Range=	Auto
#StageXY=	Marzhauser
#StageZ=	Marzhauser
#X (µm)=	-19137.9
#Y (µm)=	7454.1
#Z (µm)=	-71.5
#Full time(mm:ss)=	2:04
#Project=	
#Sample=	
#Site=	
#Title=	MS_091025
#Remark=	
#Date=	13.10.2023 16:33
#Acquired=	13.10.2023 16:33:22
520.044	34
520.097	38
520.149	48
520.201	32
520.254	34
520.306	40
520.359	48
520.411	36
520.464	40
520.516	48
520.569	40
520.621	38
520.674	46
520.726	42
520.778	50
520.831	28
520.883	42
520.936	38
520.988	34
521.041	40
521.093	44
521.146	44
521.198	46
521.25	36
521.303	44
521.355	36
521.408	36
521.46	38
521.513	48
521.565	44
521.617	46
521.67	46
521.722	42
521.775	42
521.827	36
521.88	42
521.932	46
521.984	42
522.037	42
522.089	36
522.142	40
522.194	48
522.247	36
522.299	36
522.352	42
522.404	44
522.456	34
522.509	44
522.561	48
522.614	46
522.666	36
522.719	50
522.771	44
522.823	50
522.876	42
522.928	48
522.981	40
523.033	50
523.086	36
523.138	40
523.19	46
523.243	46
523.295	36
523.348	42
523.4	40
523.453	48
523.505	38
523.557	40
523.61	50
523.662	32
523.715	42
523.767	52
523.82	42
523.872	42
523.924	42
523.977	44
524.029	46
524.082	38
524.134	48
524.186	48
524.239	48
524.291	36
524.344	44
524.396	36
524.449	48
524.501	32
524.553	42
524.606	38
524.658	44
524.711	40
524.763	52
524.815	46
524.868	46
524.92	38
524.973	44
525.025	46
525.078	42
525.13	50
525.182	54
525.235	46
525.287	44
525.34	42
525.392	46
525.444	48
525.497	42
525.549	46
525.602	56
525.654	36
525.706	46
525.759	50
525.811	50
525.864	46
525.916	44
525.969	48
526.021	42
526.073	44
526.126	40
526.178	48
526.231	52
526.283	52
526.335	40
526.388	50
526.44	48
526.493	46
526.545	38
526.597	48
526.65	48
526.702	56
526.755	36
526.807	44
526.859	50
526.912	50
526.964	36
527.017	52
527.069	42
527.121	48
527.174	36
527.226	42
527.279	42
527.331	42
527.383	48
527.436	48
527.488	44
527.54	48
527.593	42
527.645	50
527.698	54
527.75	48
527.802	42
527.855	50
527.907	54
527.96	40
528.012	36
528.064	46
528.117	52
528.169	44
528.222	44
528.274	54
528.326	44
528.379	42
528.431	48
528.484	48
528.536	46
528.588	40
528.641	46
528.693	52
528.745	50
528.798	44
528.85	50
528.903	54
528.955	44
529.007	44
529.06	46
529.112	54
529.164	50
529.217	38
529.269	48
529.322	48
529.374	52
529.426	48
529.479	40
529.531	40
529.584	50
529.636	46
529.688	52
529.741	48
529.793	48
529.845	50
529.898	52
529.95	54
530.003	46
530.055	48
530.107	56
530.16	48
530.212	46
530.264	48
530.317	48
530.369	60
530.422	46
530.474	46
530.526	56
530.579	40
530.631	40
530.683	54
530.736	50
530.788	52
530.841	46
530.893	46
530.945	52
530.998	44
531.05	46
531.102	58
531.155	48
531.207	54
531.259	44
531.312	50
531.364	50
531.417	46
531.469	50
531.521	60
531.574	50
531.626	58
531.678	58
531.731	42
531.783	60
531.835	60
531.888	54
531.94	54
531.992	52
532.045	48
532.097	48
532.15	58
532.202	56
532.254	42
532.307	56
532.359	50
532.411	54
532.464	48
532.516	54
532.568	44
532.621	62
532.673	52
532.726	54
532.778	54
532.83	48
532.883	48
532.935	54
532.987	54
533.04	52
533.092	44
533.144	54
533.197	54
533.249	56
533.301	50
533.354	60
533.406	56
533.458	56
533.511	50
533.563	52
533.615	58
533.668	56
533.72	48
533.773	60
533.825	58
533.877	54
533.93	62
533.982	50
534.034	60
534.087	58
534.139	58
534.191	68
534.244	56
534.296	56
534.348	52
534.401	64
534.453	60
534.505	56
534.558	54
534.61	56
534.662	44
534.715	52
534.767	64
534.819	70
534.872	60
534.924	50
534.976	56
535.029	68
535.081	64
535.133	66
535.186	64
535.238	60
535.29	62
535.343	54
535.395	58
535.447	64
535.5	50
535.552	66
535.604	70
535.657	68
535.709	50
535.761	54
535.814	60
535.866	60
535.918	60
535.971	64
536.023	58
536.075	60
536.128	50
536.18	54
536.232	62
536.285	62
536.337	56
536.389	62
536.442	60
536.494	58
536.546	58
536.599	62
536.651	68
536.703	70
536.755	52
536.808	58
536.86	64
536.912	60
536.965	56
537.017	76
537.069	64
537.122	70
537.174	58
537.226	62
537.279	58
537.331	68
537.383	58
537.436	70
537.488	62
537.54	64
537.593	60
537.645	66
537.697	68
537.75	60
537.802	62
537.854	62
537.906	60
537.959	58
538.011	56
538.063	58
538.116	70
538.168	58
538.22	68
538.273	64
538.325	60
538.377	62
538.43	64
538.482	70
538.534	72
538.586	68
538.639	66
538.691	62
538.743	56
538.796	58
538.848	70
538.9	72
538.953	72
539.005	56
539.057	60
539.109	70
539.162	76
539.214	70
539.266	72
539.319	74
539.371	78
539.423	58
539.476	68
539.528	72
539.58	62
539.633	58
539.685	78
539.737	68
539.789	80
539.842	72
539.894	76
539.946	70
539.999	66
540.051	70
540.103	68
540.155	76
540.208	70
540.26	66
540.312	66
540.365	78
540.417	72
540.469	72
540.521	68
540.574	68
540.626	64
540.678	80
540.731	66
540.783	80
540.835	68
540.888	70
540.94	72
540.992	68
541.044	66
541.097	74
541.149	68
541.201	94
541.254	64
541.306	76
541.358	82
541.41	70
541.463	70
541.515	80
541.567	74
541.62	72
541.672	66
541.724	84
541.776	82
541.829	78
541.881	68
541.933	86
541.985	70
542.038	74
542.09	74
542.142	76
542.195	84
542.247	72
542.299	74
542.351	76
542.404	68
542.456	78
542.508	76
542.56	84
542.613	82
542.665	78
542.717	86
542.77	76
542.822	88
542.874	68
542.926	86
542.979	74
543.031	86
543.083	76
543.135	82
543.188	74
543.24	84
543.292	80
543.344	80
543.397	90
543.449	96
543.501	88
543.554	90
543.606	90
543.658	90
543.71	80
543.763	90
543.815	86
543.867	76
543.919	88
543.972	80
544.024	86
544.076	94
544.128	82
544.181	94
544.233	96
544.285	88
544.337	98
544.39	82
544.442	94
544.494	92
544.547	80
544.599	102
544.651	100
544.703	92
544.755	92
544.808	94
544.86	100
544.912	92
544.965	84
545.017	92
545.069	92
545.121	90
545.174	98
545.226	94
545.278	106
545.33	88
545.383	96
545.435	96
545.487	88
545.539	102
545.591	104
545.644	98
545.696	104
545.748	96
545.8	102
545.853	106
545.905	102
545.957	98
546.009	90
546.062	110
546.114	102
546.166	94
546.218	100
546.271	104
546.323	106
546.375	100
546.427	102
546.48	102
546.532	112
546.584	90
546.636	98
546.689	116
546.741	92
546.793	94
546.845	118
546.898	98
546.95	108
547.002	118
547.054	108
547.106	122
547.159	112
547.211	118
547.263	110
547.315	116
547.368	110
547.42	120
547.472	112
547.524	130
547.577	100
547.629	122
547.681	112
547.733	114
547.785	116
547.838	134
547.89	128
547.942	128
547.994	104
548.047	124
548.099	130
548.151	128
548.203	112
548.255	136
548.308	124
548.36	126
548.412	116
548.464	134
548.517	134
548.569	130
548.621	128
548.673	126
548.725	108
548.778	130
548.83	128
548.882	138
548.934	126
548.987	136
549.039	128
549.091	138
549.143	150
549.195	128
549.248	136
549.3	132
549.352	142
549.404	130
549.456	124
549.509	132
549.561	138
549.613	134
549.665	148
549.718	142
549.77	150
549.822	132
549.874	140
549.926	140
549.979	136
550.031	140
550.083	142
550.135	148
550.187	152
550.24	140
550.292	144
550.344	142
550.396	154
550.448	134
550.501	152
550.553	150
550.605	142
550.657	138
550.709	170
550.762	160
550.814	168
550.866	168
550.918	164
550.97	172
551.023	154
551.075	160
551.127	170
551.179	170
551.231	160
551.284	184
551.336	168
551.388	166
551.44	172
551.492	184
551.545	192
551.597	206
551.649	188
551.701	202
551.753	206
551.806	198
551.858	224
551.91	236
551.962	252
552.014	272
552.067	290
552.119	346
552.171	414
552.223	550
552.275	964
552.327	2000
552.38	4034
552.432	7100
552.484	12268
552.536	15416
552.588	9758
552.641	4418
552.693	1672
552.745	776
552.797	486
552.849	384
552.901	324
552.954	310
553.006	280
553.058	258
553.11	238
553.162	232
553.215	220
553.267	218
553.319	208
553.371	202
553.423	218
553.475	174
553.528	186
553.58	198
553.632	204
553.684	204
553.736	204
553.788	204
553.841	216
553.893	184
553.945	186
553.997	200
554.049	182
554.102	178
554.154	210
554.206	208
554.258	204
554.31	184
554.362	196
554.414	188
554.467	192
554.519	182
554.571	208
554.623	204
554.675	206
554.727	198
554.78	204
554.832	210
554.884	208
554.936	200
554.988	190
555.04	204
555.093	210
555.145	186
555.197	208
555.249	212
555.301	206
555.353	208
555.406	220
555.458	196
555.51	216
555.562	198
555.614	210
555.666	212
555.719	230
555.771	210
555.823	220
555.875	210
555.927	194
555.979	238
556.031	212
556.084	236
556.136	208
556.188	220
556.24	234
556.292	214
556.344	208
556.396	230
556.449	224
556.501	228
556.553	216
556.605	234
556.657	218
556.709	230
556.762	232
556.814	232
556.866	250
556.918	236
556.97	234
557.022	246
557.074	238
557.127	244
557.179	234
557.231	236
557.283	238
557.335	260
557.387	236
557.439	242
557.492	256
557.544	246
557.596	242
557.648	258
557.7	244
557.752	248
557.804	246
557.856	258
557.909	256
557.961	248
558.013	262
558.065	266
558.117	248
558.169	250
558.221	268
558.273	258
558.326	264
558.378	254
558.43	250
558.482	284
558.534	250
558.586	262
558.638	272
558.691	260
558.743	256
558.795	260
558.847	254
558.899	266
558.951	266
559.003	250
559.055	280
559.108	260
559.16	272
559.212	278
559.264	252
559.316	274
559.368	286
559.42	276
559.472	256
559.525	276
559.577	262
559.629	262
559.681	282
559.733	284
559.785	276
559.837	266
559.889	280
559.941	286
559.994	278
560.046	292
560.098	280
560.15	276
560.202	270
560.254	310
560.306	282
560.358	282
560.41	290
560.463	294
560.515	302
560.567	302
560.619	286
560.671	308
560.723	288
560.775	310
560.827	298
560.879	298
560.932	312
560.984	306
561.036	302
561.088	316
561.14	312
561.192	302
561.244	328
561.296	326
561.348	310
561.4	326
561.453	332
561.505	318
561.557	332
561.609	320
561.661	316
561.713	332
561.765	318
561.817	316
561.869	340
561.921	332
561.974	316
562.026	334
562.078	340
562.13	330
562.182	318
562.234	330
562.286	358
562.338	336
562.39	342
562.442	338
562.494	350
562.547	364
562.599	348
562.651	358
562.703	344
562.755	364
562.807	352
562.859	358
562.911	360
562.963	356
563.015	366
563.067	352
563.12	336
563.172	354
563.224	358
563.276	360
563.328	392
563.38	352
563.432	368
563.484	362
563.536	370
563.588	368
563.64	372
563.692	382
563.744	376
563.797	386
563.849	378
563.901	386
563.953	378
564.005	386
564.057	374
564.109	400
564.161	370
564.213	406
564.265	388
564.317	398
564.369	390
564.421	382
564.474	404
564.526	408
564.578	402
564.63	398
564.682	418
564.734	406
564.786	384
564.838	396
564.89	386
564.942	418
564.994	392
565.046	416
565.098	392
565.15	410
565.202	412
565.255	446
565.307	432
565.359	414
565.411	426
565.463	414
565.515	420
565.567	432
565.619	430
565.671	434
565.723	412
565.775	440
565.827	440
565.879	448
565.931	432
565.983	442
566.035	452
566.087	454
566.139	432
566.192	442
566.244	446
566.296	432
566.348	422
566.4	472
566.452	452
566.504	460
566.556	462
566.608	478
566.66	478
566.712	450
566.764	494
566.816	444
566.868	476
566.92	456
566.972	468
567.024	482
567.076	482
567.128	486
567.18	478
567.232	484
567.285	490
567.337	474
567.389	482
567.441	502
567.493	472
567.545	500
567.597	498
567.649	508
567.701	522
567.753	472
567.805	494
567.857	486
567.909	502
567.961	500
568.013	530
568.065	526
568.117	508.04
568.169	530.111
568.221	516.734
568.273	530.505
568.325	528.468
568.377	514.888
568.429	545.688
568.481	541.531
568.533	528.176
568.585	527.427
568.637	520.313
568.69	571.105
568.742	546.01
568.794	553.089
568.846	555.205
568.898	548.347
568.95	531.28
569.002	559.65
569.054	568.381
569.106	546.061
569.158	555.77
569.21	562.699
569.262	569.148
569.314	563.933
569.366	562.608
569.418	597.698
569.47	570.772
569.522	586.698
569.574	576.006
569.626	590.95
569.678	585.618
569.73	601.78
569.782	587.872
569.834	611.287
569.886	595.017
569.938	601.141
569.99	616.872
570.042	614.28
570.094	613.5
570.146	621.712
570.198	622.803
570.25	641.392
570.302	623.908
570.354	656.871
570.406	643.125
570.458	642.35
570.51	656.655
570.562	650.35
570.614	661.482
570.666	668.643
570.718	652.949
570.77	677.26
570.822	678.252
570.874	685.92
570.926	694.351
570.978	700.021
571.03	709.122
571.082	707.465
571.134	719.111
571.186	711.626
571.238	734.745
571.29	747.718
571.342	755.396
571.394	751.315
571.446	742.609
571.498	770.759
571.55	781.448
571.602	779.75
571.654	790.613
571.706	785.708
571.758	801.565
571.81	797.79
571.862	809.331
571.914	814.25
571.966	822.635
572.018	835.208
572.07	842.332
572.122	843.85
572.174	853.252
572.226	890.74
572.278	872.957
572.33	894.436
572.382	923.195
572.434	923.58
572.486	929.844
572.538	942.472
572.59	955.753
572.642	932.503
572.694	947.335
572.746	988.823
572.798	997.724
572.85	1015.63
572.902	1020.13
572.954	1012.53
573.006	1029.19
573.058	1034.65
573.11	1050.6
573.162	1094.78
573.214	1115.5
573.266	1104.72
573.312	1140
573.364	1150
573.416	1172
573.469	1206
573.521	1234
573.573	1230
573.625	1234
573.677	1220
573.73	1244
573.782	1306
573.834	1312
573.886	1278
573.938	1358
573.991	1348
574.043	1378
574.095	1402
574.147	1386
574.199	1466
574.252	1456
574.304	1490
574.356	1512
574.408	1542
574.46	1554
574.513	1600
574.565	1588
574.617	1624
574.669	1654
574.721	1710
574.774	1738
574.826	1712
574.878	1744
574.93	1754
574.982	1802
575.035	1782
575.087	1848
575.139	1834
575.191	1870
575.243	1906
575.296	1924
575.348	1868
575.4	1910
575.452	1926
575.504	1932
575.556	1932
575.609	1922
575.661	1960
575.713	1978
575.765	1972
575.817	1946
575.87	2012
575.922	1978
575.974	1958
576.026	1938
576.078	1926
576.131	1924
576.183	1930
576.235	1884
576.287	1938
576.339	1862
576.391	1836
576.444	1872
576.496	1818
576.548	1808
576.6	1844
576.652	1748
576.705	1758
576.757	1748
576.809	1708
576.861	1736
576.913	1694
576.965	1638
577.018	1666
577.07	1650
577.122	1624
577.174	1596
577.226	1574
577.279	1548
577.331	1546
577.383	1574
577.435	1550
577.487	1528
577.539	1518
577.592	1492
577.644	1444
577.696	1464
577.748	1472
577.8	1446
577.852	1426
577.905	1450
577.957	1400
578.009	1404
578.061	1390
578.113	1358
578.165	1400
578.218	1362
578.27	1318
578.322	1344
578.374	1356
578.426	1326
578.478	1378
578.531	1338
578.583	1306
578.635	1314
578.687	1284
578.739	1294
578.791	1316
578.844	1280
578.896	1268
578.948	1282
579	1262
579.052	1304
579.104	1238
579.157	1272
579.209	1232
579.261	1270
579.313	1242
579.365	1256
579.417	1264
579.47	1226
579.522	1276
579.574	1250
579.626	1254
579.678	1230
579.73	1240
579.782	1268
579.835	1242
579.887	1276
579.939	1256
579.991	1260
580.043	1226
580.095	1264
580.148	1258
580.2	1270
580.252	1270
580.304	1282
580.356	1268
580.408	1250
580.46	1234
580.513	1270
580.565	1232
580.617	1244
580.669	1242
580.721	1294
580.773	1258
580.826	1306
580.878	1306
580.93	1282
580.982	1262
581.034	1282
581.086	1300
581.138	1296
581.191	1306
581.243	1264
581.295	1304
581.347	1258
581.399	1294
581.451	1286
581.503	1320
581.556	1296
581.608	1300
581.66	1290
581.712	1314
581.764	1342
581.816	1344
581.868	1352
581.92	1326
581.973	1338
582.025	1360
582.077	1338
582.129	1348
582.181	1294
582.233	1328
582.285	1372
582.338	1370
582.39	1326
582.442	1322
582.494	1338
582.546	1336
582.598	1332
582.65	1328
582.703	1354
582.755	1380
582.807	1360
582.859	1340
582.911	1378
582.963	1400
583.015	1356
583.067	1430
583.12	1398
583.172	1388
583.224	1384
583.276	1408
583.328	1396
583.38	1378
583.432	1422
583.484	1412
583.537	1398
583.589	1420
583.641	1438
583.693	1404
583.745	1470
583.797	1452
583.849	1438
583.901	1458
583.953	1454
584.006	1470
584.058	1418
584.11	1468
584.162	1458
584.214	1494
584.266	1488
584.318	1482
584.37	1494
584.423	1498
584.475	1488
584.527	1486
584.579	1502
584.631	1544
584.683	1544
584.735	1532
584.787	1540
584.839	1516
584.892	1566
584.944	1552
584.996	1570
585.048	1540
585.1	1566
585.152	1590
585.204	1586
585.256	1558
585.308	1606
585.361	1588
585.413	1598
585.465	1568
585.517	1612
585.569	1604
585.621	1632
585.673	1652
585.725	1640
585.777	1642
585.83	1656
585.882	1644
585.934	1638
585.986	1662
586.038	1666
586.09	1664
586.142	1682
586.194	1650
586.246	1698
586.298	1662
586.351	1664
586.403	1690
586.455	1642
586.507	1676
586.559	1710
586.611	1692
586.663	1738
586.715	1710
586.767	1708
586.819	1688
586.872	1660
586.924	1708
586.976	1714
587.028	1716
587.08	1698
587.132	1716
587.184	1748
587.236	1722
587.288	1772
587.34	1670
587.392	1730
587.445	1726
587.497	1690
587.549	1750
587.601	1728
587.653	1742
587.705	1752
587.757	1764
587.809	1740
587.861	1734
587.913	1748
587.965	1712
588.018	1738
588.07	1748
588.122	1724
588.174	1690
588.226	1748
588.278	1770
588.33	1758
588.382	1774
588.434	1748
588.486	1760
588.538	1786
588.59	1738
588.642	1772
588.695	1800
588.747	1770
588.799	1744
588.851	1754
588.903	1820
588.955	1780
589.007	1742
589.059	1800
589.111	1804
589.163	1810
589.215	1776
589.267	1794
589.319	1806
589.372	1806
589.424	1790
589.476	1810
589.528	1770
589.58	1800
589.632	1788
589.684	1812
589.736	1790
589.788	1796
589.84	1808
589.892	1822
589.944	1816
589.996	1788
590.048	1838
590.101	1814
590.153	1766
590.205	1752
590.257	1800
590.309	1828
590.361	1820
590.413	1800
590.465	1818
590.517	1790
590.569	1804
590.621	1750
590.673	1784
590.725	1794
590.777	1802
590.829	1792
590.881	1812
590.933	1796
590.986	1798
591.038	1812
591.09	1770
591.142	1784
591.194	1750
591.246	1798
591.298	1760
591.35	1780
591.402	1792
591.454	1784
591.506	1816
591.558	1730
591.61	1764
591.662	1744
591.714	1804
591.766	1752
591.818	1752
591.87	1820
591.923	1828
591.975	1754
592.027	1756
592.079	1778
592.131	1808
592.183	1768
592.235	1744
592.287	1774
592.339	1788
592.391	1790
592.443	1758
592.495	1768
592.547	1768
592.599	1770
592.651	1784
592.703	1806
592.755	1740
592.807	1758
592.859	1780
592.911	1772
592.963	1794
593.015	1784
593.068	1774
593.12	1738
593.172	1776
593.224	1778
593.276	1770
593.328	1786
593.38	1776
593.432	1818
593.484	1786
593.536	1770
593.588	1840
593.64	1732
593.692	1714
593.744	1790
593.796	1820
593.848	1808
593.9	1834
593.952	1854
594.004	1788
594.056	1790
594.108	1820
594.16	1812
594.212	1830
594.264	1800
594.316	1834
594.368	1834
594.42	1808
594.472	1818
594.524	1810
594.576	1814
594.628	1846
594.68	1836
594.732	1856
594.784	1854
594.837	1848
594.889	1886
594.941	1900
594.993	1878
595.045	1856
595.097	1876
595.149	1908
595.201	1840
595.253	1884
595.305	1908
595.357	1852
595.409	1886
595.461	1866
595.513	1912
595.565	1914
595.617	1944
595.669	1878
595.721	1894
595.773	1864
595.825	1936
595.877	1894
595.929	1980
595.981	1948
596.033	1928
596.085	1980
596.137	1970
596.189	1962
596.241	2010
596.293	1986
596.345	2006
596.397	1998
596.449	2010
596.501	1996
596.553	1990
596.605	2024
596.657	2052
596.709	2026
596.761	2038
596.813	2008
596.865	2036
596.917	2004
596.969	2002
597.021	2030
597.073	2024
597.125	1994
597.177	2058
597.229	2018
597.281	2022
597.333	1982
597.385	2068
597.437	2072
597.489	2062
597.541	2052
597.593	2028
597.645	2088
597.697	2002
597.749	2072
597.801	2080
597.853	2036
597.905	2034
597.957	2056
598.009	2046
598.061	2056
598.113	2032
598.165	2074
598.217	2064
598.269	2024
598.321	2058
598.373	2054
598.425	2002
598.477	2074
598.529	2058
598.581	2040
598.633	2080
598.685	2062
598.737	2072
598.789	2052
598.841	2132
598.893	2050
598.945	2048
598.997	2056
599.049	2092
599.101	2092
599.153	2138
599.205	2090
599.257	2076
599.309	2048
599.361	2092
599.413	2120
599.465	2064
599.517	2054
599.569	2098
599.62	2102
599.672	2098
599.724	2110
599.776	2022
599.828	2096
599.88	2048
599.932	2076
599.984	2088
600.036	2082
600.088	2062
600.14	2158
600.192	2134
600.244	2082
600.296	2114
600.348	2104
600.4	2104
600.452	2112
600.504	2154
600.556	2108
600.608	2136
600.66	2076
600.712	2108
600.764	2052
600.816	2064
600.868	2114
600.92	2086
600.972	2118
601.024	2114
601.076	2160
601.128	2112
601.18	2094
601.232	2104
601.284	2130
601.335	2102
601.387	2116
601.439	2164
601.491	2114
601.543	2104
601.595	2126
601.647	2094
601.699	2092
601.751	2102
601.803	2168
601.855	2164
601.907	2100
601.959	2106
602.011	2114
602.063	2132
602.115	2138
602.167	2082
602.219	2150
602.271	2144
602.323	2146
602.375	2128
602.427	2150
602.478	2162
602.53	2112
602.582	2154
602.634	2126
602.686	2146
602.738	2140
602.79	2116
602.842	2140
602.894	2174
602.946	2162
602.998	2164
603.05	2156
603.102	2164
603.154	2156
603.206	2128
603.258	2146
603.31	2150
603.362	2214
603.413	2186
603.465	2158
603.517	2190
603.569	2142
603.621	2130
603.673	2208
603.725	2184
603.777	2164
603.829	2204
603.881	2180
603.933	2220
603.985	2166
604.037	2188
604.089	2190
604.141	2228
604.193	2220
604.244	2232
604.296	2210
604.348	2210
604.4	2226
604.452	2192
604.504	2216
604.556	2204
604.608	2234
604.66	2220
604.712	2240
604.764	2216
604.816	2212
604.868	2202
604.92	2234
604.971	2188
605.023	2180
605.075	2178
605.127	2210
605.179	2236
605.231	2256
605.283	2216
605.335	2234
605.387	2196
605.439	2204
605.491	2190
605.543	2222
605.594	2242
605.646	2186
605.698	2234
605.75	2158
605.802	2188
605.854	2178
605.906	2160
605.958	2216
606.01	2190
606.062	2194
606.114	2228
606.166	2198
606.217	2208
606.269	2216
606.321	2244
606.373	2214
606.425	2206
606.477	2152
606.529	2190
606.581	2248
606.633	2238
606.685	2230
606.737	2220
606.789	2210
606.84	2238
606.892	2258
606.944	2188
606.996	2168
607.048	2218
607.1	2228
607.152	2230
607.204	2214
607.256	2250
607.308	2264
607.359	2272
607.411	2224
607.463	2202
607.515	2244
607.567	2216
607.619	2218
607.671	2236
607.723	2296
607.775	2238
607.827	2256
607.878	2246
607.93	2198
607.982	2280
608.034	2264
608.086	2250
608.138	2262
608.19	2262
608.242	2232
608.294	2230
608.345	2282
608.397	2346
608.449	2270
608.501	2288
608.553	2294
608.605	2294
608.657	2294
608.709	2280
608.761	2318
608.812	2314
608.864	2288
608.916	2268
608.968	2304
609.02	2290
609.072	2286
609.124	2300
609.176	2368
609.228	2322
609.279	2280
609.331	2336
609.383	2390
609.435	2348
609.487	2254
609.539	2354
609.591	2404
609.643	2346
609.694	2352
609.746	2340
609.798	2344
609.85	2352
609.902	2402
609.954	2354
610.006	2344
610.058	2338
610.109	2378
610.161	2368
610.213	2378
610.265	2360
610.317	2318
610.369	2376
610.421	2344
610.473	2396
610.524	2362
610.576	2370
610.628	2446
610.68	2312
610.732	2424
610.784	2392
610.836	2348
610.887	2382
610.939	2420
610.991	2380
611.043	2402
611.095	2404
611.147	2432
611.199	2394
611.25	2438
611.302	2352
611.354	2346
611.406	2444
611.458	2388
611.51	2372
611.562	2434
611.614	2432
611.665	2448
611.717	2392
611.769	2406
611.821	2438
611.873	2360
611.925	2446
611.977	2468
612.028	2468
612.08	2482
612.132	2460
612.184	2424
612.236	2454
612.288	2462
612.339	2474
612.391	2484
612.443	2484
612.495	2460
612.547	2498
612.599	2456
612.651	2538
612.702	2490
612.754	2428
612.806	2542
612.858	2518
612.91	2478
612.962	2540
613.013	2550
613.065	2526
613.117	2532
613.169	2512
613.221	2500
613.273	2518
613.325	2490
613.376	2522
613.428	2570
613.48	2528
613.532	2546
613.584	2546
613.635	2566
613.687	2570
613.739	2584
613.791	2548
613.843	2620
613.895	2584
613.947	2572
613.998	2586
614.05	2608
614.102	2564
614.154	2596
614.206	2646
614.258	2620
614.309	2654
614.361	2598
614.413	2594
614.465	2630
614.517	2646
614.568	2638
614.62	2680
614.672	2594
614.724	2648
614.776	2672
614.828	2630
614.879	2640
614.931	2642
614.983	2664
615.035	2698
615.087	2650
615.139	2660
615.19	2658
615.242	2644
615.294	2666
615.346	2736
615.398	2754
615.449	2720
615.501	2656
615.553	2686
615.605	2736
615.657	2684
615.709	2716
615.76	2752
615.812	2728
615.864	2652
615.916	2774
615.968	2724
616.019	2725.83
616.071	2803.48
616.123	2740.3
616.175	2725.21
616.227	2779.23
616.278	2757.96
616.33	2773.74
616.382	2747.8
616.434	2787.94
616.486	2723.89
616.537	2755.08
616.589	2756.28
616.641	2803.3
616.693	2815.43
616.745	2745.75
616.797	2786.4
616.848	2801.54
616.9	2784.4
616.952	2810.61
617.004	2814.57
617.056	2774.74
617.107	2788.54
617.159	2779.36
617.211	2804.88
617.263	2795.72
617.315	2820.61
617.366	2778.1
617.418	2866.5
617.47	2852.09
617.522	2842.84
617.573	2822.6
617.625	2854.68
617.677	2855.1
617.729	2846.83
617.781	2837.41
617.832	2853.09
617.884	2884.39
617.936	2839.25
617.988	2864.42
618.04	2878.59
618.091	2849.45
618.143	2817.99
618.195	2872.06
618.247	2927.28
618.299	2873.04
618.35	2881.29
618.402	2903.51
618.454	2906.11
618.506	2898.48
618.557	2890.28
618.609	2907.48
618.661	2898.42
618.713	2904.52
618.765	2922.75
618.816	2915.9
618.868	2926.6
618.92	2897.73
618.972	2940.47
619.023	2922.38
619.075	2961.38
619.127	3010.07
619.179	2956.62
619.231	2945.44
619.282	2911.09
619.334	2935.83
619.386	2942.3
619.438	2955.43
619.49	2958.61
619.541	2937.87
619.593	2958.14
619.645	2949.96
619.697	2980.92
619.748	2953.83
619.8	2960.9
619.852	2942.85
619.904	2954.63
619.955	2974.4
620.007	2953.7
620.059	2998.1
620.111	3004.7
620.162	2992.49
620.214	2974.5
620.266	2976.17
620.318	2961.48
620.37	2950.88
620.421	2965.68
620.473	3005.61
620.525	2984.91
620.577	2993.31
620.628	2989.22
620.68	2985.04
620.732	2978.64
620.784	2998.15
620.835	3018.75
620.887	3006.08
620.939	3016.08
620.991	2996.8
621.042	3005.7
621.094	3016.2
621.146	3012.09
621.198	3003.82
621.249	3021.87
621.269	3034
621.321	3016
621.373	2996
621.425	3074
621.477	3000
621.529	3032
621.581	3028
621.633	2988
621.685	3034
621.737	2964
621.789	2980
621.841	3052
621.893	3016
621.945	2988
621.997	2964
622.049	3016
622.101	3026
622.153	3050
622.205	3024
622.257	3018
622.309	3058
622.361	2984
622.413	3046
622.465	3026
622.517	3044
622.569	3074
622.621	3086
622.673	3052
622.725	3060
622.776	3058
622.828	3074
622.88	3086
622.932	3084
622.984	3044
623.036	3062
623.088	3054
623.14	3068
623.192	3084
623.244	3080
623.296	3080
623.348	3100
623.4	3076
623.452	3012
623.504	3096
623.556	3104
623.608	3084
623.66	3110
623.712	3066
623.764	3050
623.816	3090
623.868	3134
623.92	3144
623.972	3104
624.024	3118
624.076	3122
624.128	3064
624.18	3054
624.232	3136
624.284	3134
624.336	3142
624.388	3144
624.44	3138
624.492	3144
624.544	3106
624.596	3124
624.648	3108
624.699	3134
624.751	3148
624.803	3134
624.855	3086
624.907	3164
624.959	3124
625.011	3170
625.063	3156
625.115	3166
625.167	3192
625.219	3130
625.271	3142
625.323	3210
625.375	3206
625.427	3174
625.479	3182
625.531	3212
625.583	3182
625.635	3140
625.687	3242
625.739	3188
625.791	3124
625.843	3180
625.895	3194
625.946	3200
625.998	3164
626.05	3234
626.102	3252
626.154	3246
626.206	3246
626.258	3266
626.31	3256
626.362	3248
626.414	3270
626.466	3204
626.518	3214
626.57	3262
626.622	3236
626.674	3248
626.726	3258
626.778	3276
626.83	3212
626.882	3220
626.934	3210
626.985	3278
627.037	3282
627.089	3236
627.141	3268
627.193	3274
627.245	3330
627.297	3328
627.349	3304
627.401	3298
627.453	3310
627.505	3204
627.557	3292
627.609	3352
627.661	3314
627.713	3320
627.765	3352
627.817	3304
627.868	3298
627.92	3360
627.972	3312
628.024	3332
628.076	3354
628.128	3368
628.18	3334
628.232	3320
628.284	3346
628.336	3406
628.388	3338
628.44	3322
628.492	3350
628.544	3352
628.596	3392
628.647	3350
628.699	3394
628.751	3314
628.803	3368
628.855	3338
628.907	3340
628.959	3370
629.011	3366
629.063	3386
629.115	3402
629.167	3402
629.219	3424
629.271	3430
629.322	3398
629.374	3426
629.426	3438
629.478	3428
629.53	3392
629.582	3466
629.634	3430
629.686	3414
629.738	3510
629.79	3430
629.842	3450
629.894	3428
629.945	3432
629.997	3430
630.049	3458
630.101	3438
630.153	3406
630.205	3436
630.257	3450
630.309	3494
630.361	3490
630.413	3522
630.465	3454
630.517	3458
630.568	3516
630.62	3548
630.672	3526
630.724	3440
630.776	3564
630.828	3500
630.88	3480
630.932	3496
630.984	3500
631.036	3568
631.088	3532
631.14	3592
631.191	3552
631.243	3518
631.295	3510
631.347	3596
631.399	3506
631.451	3538
631.503	3546
631.555	3596
631.607	3592
631.659	3642
631.71	3580
631.762	3590
631.814	3600
631.866	3658
631.918	3648
631.97	3616
632.022	3644
632.074	3600
632.126	3580
632.178	3660
632.229	3614
632.281	3598
632.333	3688
632.385	3606
632.437	3674
632.489	3674
632.541	3676
632.593	3720
632.645	3656
632.696	3682
632.748	3682
632.8	3722
632.852	3708
632.904	3768
632.956	3704
633.008	3754
633.06	3788
633.112	3782
633.164	3730
633.215	3762
633.267	3734
633.319	3752
633.371	3848
633.423	3776
633.475	3802
633.527	3800
633.579	3826
633.63	3820
633.682	3742
633.734	3830
633.786	3880
633.838	3846
633.89	3910
633.942	3872
633.994	3844
634.046	3938
634.097	3846
634.149	3880
634.201	3886
634.253	3910
634.305	3926
634.357	3886
634.409	3900
634.461	3956
634.512	3962
634.564	3942
634.616	3930
634.668	3974
634.72	4010
634.772	3994
634.824	4014
634.876	4012
634.927	4026
634.979	3966
635.031	4084
635.083	4094
635.135	4040
635.187	4086
635.239	4128
635.291	4130
635.342	4144
635.394	4166
635.446	4136
635.498	4144
635.55	4228
635.602	4228
635.654	4268
635.705	4228
635.757	4268
635.809	4216
635.861	4254
635.913	4302
635.965	4372
636.017	4398
636.068	4482
636.12	4464
636.172	4526
636.224	4462
636.276	4518
636.328	4574
636.38	4640
636.431	4558
636.483	4696
636.535	4624
636.587	4784
636.639	4804
636.691	4760
636.743	4872
636.794	4972
636.846	4958
636.898	4960
636.95	5064
637.002	5072
637.054	5124
637.106	5140
637.157	5218
637.209	5252
637.261	5236
637.313	5266
637.365	5364
637.417	5324
637.469	5320
637.52	5414
637.572	5510
637.624	5434
637.676	5470
637.728	5532
637.78	5560
637.831	5564
637.883	5596
637.935	5592
637.987	5620
638.039	5658
638.091	5628
638.143	5632
638.194	5624
638.246	5524
638.298	5596
638.35	5608
638.402	5586
638.454	5514
638.505	5464
638.557	5504
638.609	5468
638.661	5490
638.713	5468
638.765	5444
638.816	5356
638.868	5364
638.92	5238
638.972	5300
639.024	5284
639.076	5170
639.127	5146
639.179	5164
639.231	5156
639.283	5200
639.335	5072
639.387	5118
639.438	5116
639.49	5050
639.542	5112
639.594	5022
639.646	5008
639.698	5110
639.749	4982
639.801	4996
639.853	4970
639.905	4922
639.957	4954
640.008	4950
640.06	4828
640.112	4828
640.164	4912
640.216	4832
640.268	4808
640.319	4860
640.371	4862
640.423	4792
640.475	4862
640.527	4826
640.578	4840
640.63	4828
640.682	4730
640.734	4734
640.786	4808
640.838	4790
640.889	4772
640.941	4710
640.993	4742
641.045	4774
641.097	4742
641.148	4784
641.2	4684
641.252	4716
641.304	4754
641.356	4726
641.408	4690
641.459	4738
641.511	4700
641.563	4668
641.615	4762
641.667	4756
641.718	4710
641.77	4710
641.822	4728
641.874	4658
641.926	4744
641.977	4700
642.029	4748
642.081	4742
642.133	4714
642.185	4730
642.236	4688
642.288	4758
642.34	4704
642.392	4646
642.444	4760
642.495	4736
642.547	4730
642.599	4768
642.651	4724
642.703	4780
642.754	4730
642.806	4734
642.858	4762
642.91	4664
642.962	4750
643.013	4720
643.065	4728
643.117	4742
643.169	4738
643.221	4758
643.272	4742
643.324	4722
643.376	4800
643.428	4760
643.479	4728
643.531	4758
643.583	4756
643.635	4768
643.687	4776
643.738	4776
643.79	4750
643.842	4736
643.894	4716
643.946	4764
643.997	4800
644.049	4814
644.101	4802
644.153	4846
644.205	4822
644.256	4808
644.308	4840
644.36	4764
644.412	4798
644.463	4830
644.515	4820
644.567	4840
644.619	4874
644.671	4880
644.722	4810
644.774	4834
644.826	4820
644.878	4830
644.929	4840
644.981	4926
645.033	4898
645.085	4870
645.136	4854
645.188	4874
645.24	4870
645.292	4786
645.344	4840
645.395	4830
645.447	4870
645.499	4932
645.551	4902
645.602	4828
645.654	4874
645.706	4856
645.758	4840
645.81	4982
645.861	4942
645.913	4852
645.965	4954
646.017	4914
646.068	4930
646.12	4950
646.172	4930
646.224	4916
646.275	4980
646.327	4952
646.379	4946
646.431	5026
646.482	4930
646.534	4966
646.586	4918
646.638	4868
646.689	4940
646.741	4940
646.793	4856
646.845	4932
646.896	5004
646.948	4942
647	4990
647.052	4998
647.104	4972
647.155	4906
647.207	4982
647.259	5010
647.31	5082
647.362	5046
647.414	5014
647.466	5054
647.518	4958
647.569	5048
647.621	5070
647.673	5092
647.724	5068
647.776	5044
647.828	5126
647.88	5048
647.931	5098
647.983	5018
648.035	5016
648.087	5110
648.138	5050
648.19	5148
648.242	5074
648.294	5054
648.345	5146
648.397	5014
648.449	5070
648.501	5024
648.552	5126
648.604	5150
648.656	5138
648.708	5102
648.759	5112
648.811	5172
648.863	5144
648.915	5120
648.966	5098
649.018	5110
649.07	5076
649.121	5202
649.173	5164
649.225	5188
649.277	5168
649.328	5172
649.38	5212
649.432	5204
649.484	5288
649.535	5230
649.587	5272
649.639	5282
649.69	5280
649.742	5294
649.794	5316
649.846	5350
649.897	5248
649.949	5222
650.001	5306
650.053	5296
650.104	5288
650.156	5324
650.208	5286
650.259	5308
650.311	5352
650.363	5302
650.415	5332
650.466	5360
650.518	5390
650.57	5392
650.621	5376
650.673	5390
650.725	5328
650.777	5362
650.828	5348
650.88	5432
650.932	5444
650.984	5356
651.035	5352
651.087	5408
651.139	5428
651.19	5346
651.242	5458
651.294	5466
651.345	5426
651.397	5418
651.449	5390
651.501	5392
651.552	5438
651.604	5486
651.656	5498
651.707	5500
651.759	5462
651.811	5578
651.863	5588
651.914	5396
651.966	5554
652.018	5424
652.069	5486
652.121	5580
652.173	5448
652.224	5598
652.276	5590
652.328	5540
652.38	5622
652.431	5568
652.483	5584
652.535	5554
652.586	5604
652.638	5578
652.69	5682
652.741	5604
652.793	5580
652.845	5610
652.897	5602
652.948	5588
653	5654
653.052	5672
653.103	5698
653.155	5672
653.207	5658
653.258	5734
653.31	5720
653.362	5686
653.413	5680
653.465	5776
653.517	5726
653.568	5758
653.62	5730
653.672	5806
653.724	5728
653.775	5856
653.827	5746
653.879	5796
653.93	5804
653.982	5918
654.034	5810
654.085	5752
654.137	5846
654.189	5934
654.24	5854
654.292	5880
654.344	5914
654.395	5926
654.447	5936
654.499	5874
654.55	5922
654.602	5916
654.654	5952
654.705	5972
654.757	5984
654.809	5942
654.86	6088
654.912	6038
654.964	6042
655.016	6014
655.067	6038
655.119	5972
655.17	6086
655.222	6086
655.274	6082
655.326	6114
655.377	6112
655.429	6030
655.481	6082
655.532	6144
655.584	6156
655.635	6132
655.687	6074
655.739	6184
655.79	6246
655.842	6162
655.894	6150
655.945	6216
655.997	6184
656.049	6284
656.1	6242
656.152	6332
656.204	6236
656.255	6304
656.307	6300
656.359	6310
656.41	6294
656.462	6348
656.514	6328
656.565	6406
656.617	6298
656.669	6326
656.72	6324
656.772	6378
656.824	6418
656.875	6374
656.927	6484
656.979	6470
657.03	6418
657.082	6504
657.134	6522
657.185	6498
657.237	6530
657.288	6506
657.34	6478
657.392	6562
657.443	6624
657.495	6558
657.547	6584
657.598	6562
657.65	6590
657.702	6584
657.753	6672
657.805	6590
657.857	6544
657.908	6582
657.96	6560
658.011	6696
658.063	6628
658.115	6606
658.166	6668
658.218	6560
658.27	6712
658.321	6622
658.373	6666
658.425	6664
658.476	6678
658.528	6710
658.579	6644
658.631	6734
658.683	6734
658.734	6820
658.786	6702
658.838	6676
658.889	6648
658.941	6728
658.992	6752
659.044	6764
659.096	6680
659.147	6732
659.199	6730
659.251	6772
659.302	6720
659.354	6790
659.406	6768
659.457	6790
659.509	6760
659.56	6856
659.612	6758
659.664	6798
659.715	6818
659.767	6738
659.818	6762
659.87	6784
659.922	6750
659.973	6686
660.025	6774
660.077	6752
660.128	6720
660.18	6702
660.231	6840
660.283	6764
660.335	6834
660.386	6744
660.438	6782
660.49	6680
660.541	6734
660.593	6812
660.644	6748
660.696	6786
660.748	6788
660.799	6714
660.851	6742
660.902	6762
660.954	6796
661.006	6738
661.057	6762
661.109	6780
661.16	6744
661.212	6756
661.264	6778
661.315	6796
661.367	6730
661.418	6770
661.47	6778
661.522	6804
661.573	6804
661.625	6776
661.676	6870
661.728	6722
661.78	6744
661.831	6824
661.883	6762
661.934	6726
661.986	6824
662.038	6684
662.089	6686
662.141	6690
662.192	6774
662.244	6770
662.296	6802
662.347	6688
662.399	6826
662.45	6872
662.502	6762
662.554	6774
662.605	6774
662.657	6762
662.708	6748
662.76	6720
662.811	6862
662.863	6806
662.915	6744
662.966	6792
663.018	6794
663.069	6802
663.121	6726
663.173	6748
663.224	6750
663.276	6852
663.327	6824
663.379	6754
663.43	6764
663.482	6866
663.534	6800
663.585	6804
663.637	6790
663.688	6860
663.74	6804.49
663.792	6785.59
663.843	6815.48
663.895	6774.44
663.946	6853.49
663.998	6836.76
664.049	6820.99
664.101	6819.47
664.153	6813.04
664.204	6848.7
664.256	6795.71
664.307	6755.67
664.359	6770.54
664.41	6886.33
664.462	6749.26
664.513	6778.51
664.565	6734.83
664.617	6842.94
664.668	6860.81
664.72	6811.59
664.771	6856.78
664.823	6846.09
664.874	6817.54
664.926	6830.64
664.978	6790.4
665.029	6805.47
665.081	6804.33
665.132	6776.33
665.184	6777.57
665.235	6767.32
665.287	6832.34
665.339	6838.91
665.39	6829.5
665.442	6819.83
665.493	6745.56
665.545	6832.62
665.596	6812.97
665.648	6822.02
665.699	6761.77
665.751	6838.59
665.802	6797.68
665.854	6807.36
665.906	6781.05
665.957	6825.41
666.009	6802.79
666.06	6815.47
666.112	6823.18
666.163	6806.79
666.215	6815.25
666.266	6752.75
666.318	6776.77
666.37	6737.28
666.421	6747.77
666.473	6787.79
666.524	6784.57
666.576	6839.76
666.627	6829.11
666.679	6789.58
666.73	6779.81
666.782	6813.3
666.833	6811.79
666.885	6820.87
666.937	6791.86
666.988	6764.76
667.04	6784.04
667.091	6813.95
667.143	6837.64
667.194	6807.07
667.246	6805.2
667.297	6813.91
667.349	6799.35
667.4	6757.28
667.452	6817.64
667.503	6829.78
667.555	6781.94
667.607	6794.79
667.658	6824.64
667.71	6824.78
667.761	6855.21
667.813	6853.55
667.864	6800.59
667.916	6793.84
667.967	6847.84
668.019	6800.87
668.07	6706.95
668.122	6791.73
668.173	6791.94
668.225	6802.09
668.276	6777.2
668.328	6799.54
668.379	6815.92
668.431	6766.9
668.482	6850.07
668.534	6828.24
668.586	6829.4
668.637	6786.93
668.689	6788.66
668.74	6781.2
668.792	6805.94
668.843	6767.18
668.895	6780.6
668.935	6784
668.987	6804
669.038	6694
669.09	6770
669.142	6864
669.194	6838
669.245	6816
669.297	6856
669.349	6802
669.401	6814
669.453	6776
669.504	6840
669.556	6754
669.608	6842
669.66	6858
669.711	6790
669.763	6728
669.815	6812
669.867	6778
669.918	6818
669.97	6818
670.022	6862
670.074	6822
670.125	6748
670.177	6780
670.229	6842
670.281	6824
670.332	6772
670.384	6728
670.436	6778
670.488	6812
670.539	6826
670.591	6820
670.643	6818
670.695	6810
670.747	6822
670.798	6682
670.85	6798
670.902	6858
670.953	6658
671.005	6794
671.057	6792
671.109	6766
671.161	6766
671.212	6772
671.264	6748
671.316	6774
671.367	6806
671.419	6734
671.471	6850
671.523	6746
671.575	6868
671.626	6834
671.678	6872
671.73	6850
671.781	6790
671.833	6776
671.885	6804
671.937	6814
671.988	6872
672.04	6798
672.092	6868
672.144	6850
672.195	6782
672.247	6770
672.299	6852
672.351	6844
672.402	6880
672.454	6932
672.506	6902
672.558	6788
672.609	6860
672.661	6888
672.713	6862
672.765	6898
672.816	6850
672.868	6858
672.92	6810
672.971	6964
673.023	6908
673.075	6906
673.127	6974
673.178	6876
673.23	6894
673.282	6850
673.334	6898
673.385	6926
673.437	6916
673.489	6872
673.54	6938
673.592	6928
673.644	6912
673.696	6876
673.747	6928
673.799	6982
673.851	7030
673.903	6942
673.954	7038
674.006	6998
674.058	6916
674.109	6984
674.161	7036
674.213	7048
674.265	7088
674.316	7028
674.368	7026
674.42	7044
674.471	7032
674.523	7036
674.575	7042
674.627	6982
674.678	7010
674.73	7038
674.782	7094
674.833	7118
674.885	7122
674.937	7136
674.989	7202
675.04	7134
675.092	7086
675.144	7006
675.195	7166
675.247	7168
675.299	7112
675.351	7074
675.402	7102
675.454	7156
675.506	7144
675.557	7188
675.609	7076
675.661	7222
675.713	7136
675.764	7130
675.816	7200
675.868	7184
675.919	7106
675.971	7224
676.023	7114
676.074	7196
676.126	7194
676.178	7166
676.23	7176
676.281	7184
676.333	7114
676.385	7172
676.436	7106
676.488	7206
676.54	7272
676.591	7250
676.643	7230
676.695	7192
676.747	7154
676.798	7236
676.85	7140
676.902	7176
676.953	7214
677.005	7192
677.057	7336
677.108	7172
677.16	7222
677.212	7214
677.263	7214
677.315	7176
677.367	7152
677.419	7168
677.47	7164
677.522	7198
677.574	7196
677.625	7190
677.677	7150
677.729	7144
677.78	7212
677.832	7076
677.884	7204
677.935	7192
677.987	7194
678.039	7178
678.091	7214
678.142	7184
678.194	7224
678.246	7138
678.297	7104
678.349	7194
678.401	7154
678.452	7158
678.504	7166
678.556	7136
678.607	7180
678.659	7232
678.711	7156
678.762	7142
678.814	7142
678.866	7152
678.917	7116
678.969	7222
679.021	7198
679.072	7196
679.124	7142
679.176	7188
679.227	7162
679.279	7142
679.331	7306
679.382	7232
679.434	7078
679.486	7184
679.537	7096
679.589	7198
679.641	7194
679.692	7154
679.744	7226
679.796	7238
679.847	7274
679.899	7236
679.951	7164
680.003	7266
680.054	7220
680.106	7218
680.157	7262
680.209	7148
680.261	7214
680.312	7144
680.364	7212
680.416	7224
680.467	7232
680.519	7168
680.571	7300
680.622	7318
680.674	7268
680.726	7334
680.777	7266
680.829	7272
680.881	7294
680.932	7260
680.984	7276
681.036	7318
681.087	7302
681.139	7296
681.191	7262
681.242	7260
681.294	7220
681.346	7320
681.397	7340
681.449	7316
681.501	7262
681.552	7372
681.604	7402
681.656	7370
681.707	7358
681.759	7392
681.81	7326
681.862	7300
681.914	7426
681.965	7334
682.017	7456
682.069	7412
682.12	7274
682.172	7358
682.224	7390
682.275	7416
682.327	7376
682.379	7344
682.43	7366
682.482	7360
682.533	7408
682.585	7352
682.637	7360
682.688	7450
682.74	7442
682.792	7360
682.843	7406
682.895	7388
682.947	7386
682.998	7442
683.05	7412
683.102	7436
683.153	7380
683.205	7370
683.256	7438
683.308	7432
683.36	7356
683.411	7494
683.463	7394
683.515	7350
683.566	7438
683.618	7400
683.669	7412
683.721	7356
683.773	7296
683.824	7360
683.876	7380
683.928	7326
683.979	7288
684.031	7410
684.082	7334
684.134	7280
684.186	7364
684.237	7380
684.289	7470
684.341	7312
684.392	7316
684.444	7306
684.495	7314
684.547	7350
684.599	7340
684.65	7276
684.702	7332
684.754	7292
684.805	7294
684.857	7320
684.908	7308
684.96	7380
685.012	7340
685.063	7304
685.115	7256
685.166	7374
685.218	7272
685.27	7260
685.321	7156
685.373	7268
685.424	7304
685.476	7252
685.528	7254
685.579	7348
685.631	7310
685.683	7272
685.734	7206
685.786	7354
685.837	7210
685.889	7154
685.941	7216
685.992	7170
686.044	7252
686.095	7150
686.147	7078
686.199	7248
686.25	7184
686.302	7212
686.353	7224
686.405	7168
686.457	7166
686.508	7166
686.56	7234
686.611	7190
686.663	7208
686.715	7258
686.766	7206
686.818	7228
686.869	7036
686.921	7232
686.973	7136
687.024	7224
687.076	7240
687.127	7128
687.179	7178
687.231	7162
687.282	7130
687.334	7180
687.385	7110
687.437	7202
687.489	7098
687.54	7128
687.592	7192
687.643	7208
687.695	7162
687.747	7168
687.798	7176
687.85	7164
687.901	7224
687.953	7170
688.004	7180
688.056	7148
688.108	7246
688.159	7172
688.211	7144
688.262	7046
688.314	7194
688.366	7212
688.417	7134
688.469	7118
688.52	7088
688.572	7138
688.623	7094
688.675	7154
688.727	7190
688.778	7146
688.83	7092
688.881	7130
688.933	7038
688.984	7180
689.036	7174
689.088	7090
689.139	7104
689.191	7108
689.242	7120
689.294	7058
689.346	7092
689.397	7114
689.449	7166
689.5	7082
689.552	7074
689.603	7058
689.655	7124
689.706	7134
689.758	7034
689.81	7110
689.861	7096
689.913	7126
689.964	7056
690.016	7036
690.067	7098
690.119	7076
690.171	7096
690.222	7080
690.274	7034
690.325	7026
690.377	7170
690.428	7074
690.48	7060
690.531	7048
690.583	7060
690.635	7094
690.686	7078
690.738	6980
690.789	6928
690.841	7010
690.892	7062
690.944	6986
690.996	6980
691.047	6990
691.099	7038
691.15	7066
691.202	6934
691.253	6924
691.305	6944
691.356	6964
691.408	6934
691.459	7054
691.511	7016
691.563	6994
691.614	6840
691.666	6918
691.717	6966
691.769	7028
691.82	6906
691.872	6858
691.923	7052
691.975	6914
692.026	6826
692.078	6910
692.13	6920
692.181	6914
692.233	6916
692.284	6890
692.336	6844
692.387	6902
692.439	6952
692.49	6942
692.542	6938
692.593	6894
692.645	6950
692.697	6938
692.748	6900
692.8	6832
692.851	6882
692.903	6804
692.954	6854
693.006	6762
693.057	6814
693.109	6844
693.16	6858
693.212	6820
693.263	6834
693.315	6814
693.366	6748
693.418	6816
693.47	6746
693.521	6764
693.573	6692
693.624	6762
693.676	6722
693.727	6898
693.779	6862
693.83	6836
693.882	6772
693.933	6808
693.985	6840
694.036	6824
694.088	6752
694.139	6774
694.191	6684
694.242	6750
694.294	6674
694.345	6784
694.397	6838
694.448	6796
694.5	6820
694.552	6764
694.603	6760
694.655	6730
694.706	6854
694.758	6720
694.809	6690
694.861	6736
694.912	6776
694.964	6722
695.015	6738
695.067	6738
695.118	6750
695.17	6706
695.221	6698
695.273	6722
695.324	6768
695.376	6748
695.427	6674
695.479	6620
695.53	6690
695.582	6662
695.633	6684
695.685	6714
695.736	6676
695.788	6630
695.839	6672
695.891	6708
695.942	6674
695.994	6692
696.045	6764
696.097	6672
696.148	6660
696.2	6622
696.251	6608
696.303	6582
696.354	6666
696.406	6580
696.457	6628
696.509	6590
696.56	6608
696.612	6614
696.663	6634
696.715	6552
696.766	6598
696.818	6574
696.869	6568
696.921	6584
696.972	6602
697.024	6628
697.075	6604
697.127	6640
697.178	6590
697.23	6634
697.281	6596
697.333	6504
697.384	6494
697.436	6526
697.487	6472
697.539	6554
697.59	6634
697.642	6446
697.693	6436
697.745	6522
697.796	6462
697.847	6508
697.899	6464
697.95	6460
698.002	6508
698.053	6456
698.105	6462
698.156	6510
698.208	6404
698.259	6452
698.311	6478
698.362	6412
698.414	6480
698.465	6484
698.517	6452
698.568	6414
698.62	6400
698.671	6418
698.723	6368
698.774	6374
698.826	6360
698.877	6340
698.928	6380
698.98	6326
699.031	6350
699.083	6416
699.134	6352
699.186	6384
699.237	6336
699.289	6382
699.34	6292
699.392	6270
699.443	6334
699.495	6280
699.546	6302
699.598	6360
699.649	6260
699.7	6364
699.752	6300
699.803	6310
699.855	6350
699.906	6336
699.958	6242
700.009	6254
700.061	6356
700.112	6250
700.164	6278
700.215	6292
700.266	6282
700.318	6280
700.369	6306
700.421	6304
700.472	6294
700.524	6272
700.575	6266
700.627	6268
700.678	6232
700.73	6272
700.781	6300
700.832	6300
700.884	6242
700.935	6312
700.987	6268
701.038	6308
701.09	6322
701.141	6326
701.193	6172
701.244	6290
701.295	6256
701.347	6304
701.398	6268
701.45	6292
701.501	6272
701.553	6236
701.604	6268
701.656	6330
701.707	6232
701.758	6276
701.81	6240
701.861	6332
701.913	6246
701.964	6300
702.016	6292
702.067	6216
702.119	6318
702.17	6234
702.221	6280
702.273	6260
702.324	6278
702.376	6316
702.427	6280
702.479	6378
702.53	6298
702.581	6268
702.633	6302
702.684	6220
702.736	6272
702.787	6240
702.839	6306
702.89	6202
702.941	6208
702.993	6232
703.044	6270
703.096	6256
703.147	6268
703.199	6278
703.25	6200
703.301	6230
703.353	6196
703.404	6264
703.456	6240
703.507	6292
703.558	6240
703.61	6204
703.661	6206
703.713	6168
703.764	6242
703.816	6296
703.867	6276
703.918	6222
703.97	6232
704.021	6190
704.073	6248
704.124	6140
704.175	6168
704.227	6190
704.278	6224
704.33	6154
704.381	6194
704.432	6192
704.484	6114
704.535	6204
704.587	6178
704.638	6116
704.69	6112
704.741	6174
704.792	6148
704.844	6138
704.895	6114
704.947	6100
704.998	6078
705.049	6070
705.101	6068
705.152	6146
705.204	6008
705.255	6038
705.306	6042
705.358	6076
705.409	6142
705.461	6094
705.512	6112
705.563	6148
705.615	6058
705.666	6020
705.718	6048
705.769	6068
705.82	6040
705.872	6042
705.923	6004
705.974	6008
706.026	6006
706.077	5902
706.129	5982
706.18	6006
706.231	6006
706.283	5992
706.334	5860
706.386	5930
706.437	6004
706.488	5960
706.54	5860
706.591	5988
706.643	5966
706.694	5872
706.745	5962
706.797	5886
706.848	5940
706.899	5984
706.951	5874
707.002	5846
707.054	5934
707.105	5890
707.156	5892
707.208	5882
707.259	5868
707.31	5836
707.362	5818
707.413	5878
707.465	5882
707.516	5816
707.567	5888
707.619	5844
707.67	5794
707.721	5840
707.773	5860
707.824	5800
707.876	5902
707.927	5768
707.978	5832
708.03	5814
708.081	5872
708.132	5832
708.184	5762
708.235	5798
708.287	5824
708.338	5836
708.389	5750
708.441	5850
708.492	5712
708.543	5802
708.595	5746
708.646	5812
708.697	5710
708.749	5746
708.8	5760
708.852	5766
708.903	5750
708.954	5774
709.006	5818
709.057	5732
709.108	5748
709.16	5702
709.211	5720
709.262	5748
709.314	5794
709.365	5716
709.416	5834
709.468	5742
709.519	5690
709.57	5738
709.622	5748
709.673	5714
709.725	5702
709.776	5712
709.827	5754
709.879	5602
709.93	5614
709.981	5748
710.033	5732
710.084	5724
710.135	5732
710.187	5710
710.238	5734
710.289	5706
710.341	5734
710.392	5606
710.443	5728
710.495	5642
710.546	5750
710.597	5656
710.649	5558
710.7	5668
710.751	5666
710.803	5636
710.854	5626
710.905	5610
710.957	5644
711.008	5648
711.059	5656
711.111	5568
711.162	5664
711.213	5680
711.265	5622.16
711.316	5656.33
711.367	5625.06
711.419	5594.87
711.47	5608.88
711.521	5642.25
711.573	5671.64
711.624	5601.42
711.675	5509.94
711.727	5617.09
711.778	5528.11
711.829	5638.29
711.881	5614.63
711.932	5503.08
711.983	5599.54
712.035	5620.97
712.086	5528.08
712.137	5462.74
712.189	5519.1
712.24	5570.2
712.291	5504.96
712.343	5516.97
712.394	5471.64
712.445	5444.61
712.496	5494.81
712.548	5448.58
712.599	5426.42
712.65	5504.17
712.702	5552.96
712.753	5478.79
712.804	5439.84
712.856	5469.97
712.907	5457
712.958	5461.63
713.01	5424.19
713.061	5424.64
713.112	5421.78
713.164	5438.03
713.215	5387.49
713.266	5443.21
713.317	5398.44
713.369	5411.63
713.42	5375.64
713.471	5330.8
713.523	5377.78
713.574	5333.05
713.625	5423.07
713.677	5383.96
713.728	5408.21
713.779	5361.17
713.831	5379.95
713.882	5361.77
713.933	5372.14
713.984	5339.53
714.036	5317.54
714.087	5314.02
714.138	5347.86
714.19	5291.02
714.241	5316.4
714.292	5267.22
714.343	5270.39
714.395	5288.64
714.446	5272.46
714.497	5301.47
714.549	5279.42
714.6	5277.91
714.651	5295.8
714.703	5282.2
714.754	5263.28
714.805	5256.34
714.856	5261.33
714.908	5251.81
714.959	5229.8
715.01	5228.88
715.062	5197.55
715.113	5229.31
715.164	5238.12
715.215	5201.01
715.267	5178.96
715.318	5188.93
715.369	5198.31
715.421	5178
715.472	5204.54
715.523	5198.49
715.574	5176.55
715.626	5178.49
715.677	5158.42
715.728	5167.28
715.779	5185.04
715.831	5170.16
715.882	5156.81
715.933	5137.82
715.985	5194.46
716.036	5173.95
716.087	5121.97
716.138	5097.41
716.19	5111.95
716.241	5064.45
716.292	5088.31
716.343	5137.42
716.395	5121.98
716.433	5120
716.485	5142
716.536	5148
716.588	5096
716.639	5078
716.691	5088
716.742	5122
716.794	5092
716.845	5018
716.897	5074
716.948	5034
717	5062
717.052	5070
717.103	5056
717.155	4976
717.206	5070
717.258	5030
717.309	5022
717.361	5122
717.412	4936
717.464	5064
717.515	5056
717.567	4996
717.618	4990
717.67	4946
717.721	5022
717.773	5026
717.824	4976
717.876	4896
717.927	5074
717.979	4910
718.03	5056
718.082	4960
718.133	4938
718.185	4994
718.237	4942
718.288	4968
718.34	5020
718.391	4956
718.443	4862
718.494	4950
718.546	4920
718.597	4938
718.649	4822
718.7	4912
718.752	4958
718.803	4962
718.855	4928
718.906	4850
718.958	4934
719.009	4942
719.061	4894
719.112	4886
719.164	4904
719.215	4888
719.267	4896
719.318	4920
719.37	4882
719.421	4852
719.473	4828
719.524	4902
719.576	4844
719.627	4832
719.679	4822
719.73	4886
719.782	4830
719.833	4744
719.885	4826
719.936	4874
719.988	4772
720.039	4834
720.091	4838
720.142	4786
720.194	4726
720.245	4794
720.297	4760
720.348	4714
720.4	4722
720.451	4780
720.503	4646
720.554	4636
720.606	4822
720.657	4692
720.709	4730
720.76	4672
720.812	4718
720.863	4740
720.915	4730
720.966	4710
721.018	4688
721.069	4752
721.121	4650
721.172	4656
721.224	4632
721.275	4684
721.327	4648
721.378	4684
721.43	4688
721.481	4548
721.532	4670
721.584	4662
721.635	4636
721.687	4542
721.738	4584
721.79	4714
721.841	4636
721.893	4636
721.944	4556
721.996	4512
722.047	4674
722.099	4630
722.15	4572
722.202	4578
722.253	4550
722.305	4486
722.356	4502
722.408	4602
722.459	4552
722.511	4542
722.562	4558
722.614	4498
722.665	4620
722.716	4492
722.768	4560
722.819	4510
722.871	4550
722.922	4524
722.974	4478
723.025	4554
723.077	4462
723.128	4470
723.18	4450
723.231	4496
723.283	4452
723.334	4458
723.386	4472
723.437	4482
723.488	4490
723.54	4442
723.591	4484
723.643	4438
723.694	4422
723.746	4412
723.797	4448
723.849	4392
723.9	4462
723.952	4404
724.003	4450
724.055	4452
724.106	4380
724.157	4396
724.209	4398
724.26	4408
724.312	4344
724.363	4394
724.415	4314
724.466	4414
724.518	4412
724.569	4378
724.621	4336
724.672	4358
724.723	4270
724.775	4368
724.826	4392
724.878	4384
724.929	4318
724.981	4360
725.032	4374
725.084	4328
725.135	4306
725.187	4292
725.238	4352
725.289	4336
725.341	4290
725.392	4294
725.444	4290
725.495	4282
725.547	4308
725.598	4236
725.65	4306
725.701	4290
725.752	4272
725.804	4250
725.855	4234
725.907	4304
725.958	4306
726.01	4192
726.061	4238
726.112	4232
726.164	4202
726.215	4266
726.267	4190
726.318	4156
726.37	4246
726.421	4172
726.473	4238
726.524	4202
726.575	4172
726.627	4162
726.678	4124
726.73	4140
726.781	4130
726.833	4182
726.884	4184
726.935	4142
726.987	4198
727.038	4220
727.09	4214
727.141	4088
727.193	4134
727.244	4116
727.295	4140
727.347	4110
727.398	4124
727.45	4060
727.501	4068
727.552	4136
727.604	4126
727.655	4140
727.707	4108
727.758	4096
727.81	4056
727.861	4096
727.912	4108
727.964	4042
728.015	4130
728.067	4032
728.118	4026
728.17	4012
728.221	3996
728.272	4002
728.324	4064
728.375	3992
728.427	3980
728.478	4002
728.529	3976
728.581	3976
728.632	3978
728.684	3970
728.735	4018
728.786	3916
728.838	3990
728.889	3932
728.941	3938
728.992	3868
729.044	3878
729.095	3904
729.146	3918
729.198	3884
729.249	3916
729.301	3884
729.352	3848
729.403	3844
729.455	3902
729.506	3894
729.558	3876
729.609	3868
729.66	3858
729.712	3888
729.763	3886
729.815	3828
729.866	3836
729.917	3840
729.969	3862
730.02	3848
730.072	3748
730.123	3784
730.174	3812
730.226	3838
730.277	3788
730.329	3856
730.38	3814
730.431	3824
730.483	3734
730.534	3804
730.586	3756
730.637	3748
730.688	3746
730.74	3756
730.791	3826
730.842	3730
730.894	3800
730.945	3758
730.997	3746
731.048	3706
731.099	3756
731.151	3718
731.202	3746
731.254	3728
731.305	3710
731.356	3808
731.408	3756
731.459	3646
731.51	3704
731.562	3682
731.613	3726
731.665	3730
731.716	3660
731.767	3656
731.819	3700
731.87	3676
731.922	3700
731.973	3668
732.024	3770
732.076	3680
732.127	3600
732.178	3660
732.23	3660
732.281	3644
732.333	3618
732.384	3648
732.435	3642
732.487	3646
732.538	3584
732.589	3586
732.641	3644
732.692	3662
732.744	3648
732.795	3652
732.846	3608
732.898	3638
732.949	3564
733	3576
733.052	3674
733.103	3644
733.154	3610
733.206	3640
733.257	3500
733.309	3668
733.36	3610
733.411	3570
733.463	3508
733.514	3534
733.565	3600
733.617	3570
733.668	3582
733.719	3604
733.771	3648
733.822	3624
733.873	3642
733.925	3604
733.976	3596
734.028	3568
734.079	3560
734.13	3608
734.182	3558
734.233	3576
734.284	3590
734.336	3574
734.387	3512
734.438	3610
734.49	3552
734.541	3540
734.592	3554
734.644	3578
734.695	3550
734.747	3600
734.798	3528
734.849	3502
734.901	3504
734.952	3514
735.003	3520
735.055	3506
735.106	3564
735.157	3508
735.209	3514
735.26	3462
735.311	3552
735.363	3518
735.414	3512
735.465	3488
735.517	3558
735.568	3580
735.619	3568
735.671	3520
735.722	3512
735.773	3488
735.825	3548
735.876	3454
735.927	3462
735.979	3500
736.03	3538
736.081	3542
736.133	3520
736.184	3450
736.235	3524
736.287	3550
736.338	3508
736.389	3546
736.441	3490
736.492	3504
736.543	3442
736.595	3496
736.646	3544
736.697	3472
736.749	3452
736.8	3492
736.851	3498
736.903	3482
736.954	3534
737.005	3486
737.057	3502
737.108	3510
737.159	3550
737.211	3516
737.262	3498
737.313	3506
737.365	3502
737.416	3380
737.467	3470
737.518	3464
737.57	3514
737.621	3488
737.672	3564
737.724	3544
737.775	3560
737.826	3538
737.878	3498
737.929	3526
737.98	3450
738.032	3530
738.083	3446
738.134	3472
738.186	3444
738.237	3554
738.288	3452
738.339	3498
738.391	3508
738.442	3456
738.493	3520
738.545	3512
738.596	3470
738.647	3466
738.699	3460
738.75	3470
738.801	3424
738.853	3440
738.904	3470
738.955	3430
739.006	3442
739.058	3528
739.109	3406
739.16	3386
739.212	3398
739.263	3398
739.314	3410
739.366	3392
739.417	3396
739.468	3422
739.519	3436
739.571	3372
739.622	3344
739.673	3360
739.725	3356
739.776	3288
739.827	3268
739.878	3332
739.93	3410
739.981	3368
740.032	3326
740.084	3316
740.135	3338
740.186	3298
740.237	3384
740.289	3386
740.34	3376
740.391	3314
740.443	3318
740.494	3304
740.545	3320
740.596	3294
740.648	3274
740.699	3272
740.75	3312
740.802	3296
740.853	3302
740.904	3332
740.956	3250
741.007	3250
741.058	3306
741.109	3258
741.161	3290
741.212	3254
741.263	3270
741.314	3230
741.366	3194
741.417	3276
741.468	3230
741.52	3280
741.571	3216
741.622	3182
741.673	3228
741.725	3224
741.776	3202
741.827	3206
741.878	3184
741.93	3170
741.981	3196
742.032	3176
742.083	3226
742.135	3222
742.186	3158
742.237	3188
742.289	3246
742.34	3198
742.391	3182
742.442	3180
742.494	3170
742.545	3084
742.596	3164
742.647	3172
742.699	3152
742.75	3152
742.801	3130
742.852	3110
742.904	3114
742.955	3114
743.006	3136
743.057	3102
743.109	3112
743.16	3100
743.211	3114
743.263	3122
743.314	3104
743.365	3044
743.416	3110
743.468	3080
743.519	3100
743.57	3092
743.621	3076
743.672	3082
743.724	3086
743.775	3024
743.826	3060
743.878	3060
743.929	3042
743.98	3034
744.031	3034
744.083	3036
744.134	3046
744.185	3032
744.236	3006
744.287	3060
744.339	2968
744.39	3006
744.441	3014
744.492	3022
744.544	3022
744.595	3060
744.646	2988
744.697	3034
744.749	2954
744.8	2962
744.851	3020
744.902	2982
744.954	3000
745.005	2930
745.056	2916
745.107	2984
745.159	2964
745.21	3028
745.261	3010
745.312	2974
745.363	3002
745.415	3034
745.466	2986
745.517	2992
745.568	2956
745.62	2998
745.671	2910
745.722	2968
745.773	2978
745.824	2952
745.876	2920
745.927	2984
745.978	2856
746.029	2910
746.081	2950
746.132	2954
746.183	2930
746.234	2942
746.285	2926
746.337	2892
746.388	2924
746.439	2908
746.49	2914
746.542	2912
746.593	2970
746.644	2846
746.695	2890
746.746	2936
746.798	2902
746.849	2900
746.9	2878
746.951	2858
747.003	2820
747.054	2866
747.105	2896
747.156	2918
747.207	2796
747.259	2856
747.31	2858
747.361	2884
747.412	2830
747.463	2850
747.515	2856
747.566	2862
747.617	2840
747.668	2838
747.719	2824
747.771	2826
747.822	2870
747.873	2802
747.924	2808
747.975	2836
748.027	2900
748.078	2894
748.129	2798
748.18	2822
748.231	2852
748.283	2820
748.334	2800
748.385	2778
748.436	2840
748.487	2826
748.539	2798
748.59	2796
748.641	2784
748.692	2836
748.743	2798
748.795	2782
748.846	2766
748.897	2806
748.948	2788
748.999	2772
749.05	2764
749.102	2792
749.153	2758
749.204	2790
749.255	2794
749.306	2770
749.358	2788
749.409	2700
749.46	2746
749.511	2798
749.562	2788
749.614	2774
749.665	2752
749.716	2720
749.767	2708
749.818	2762
749.869	2772
749.921	2746
749.972	2710
750.023	2742
750.074	2680
750.125	2744
750.177	2710
750.228	2692
750.279	2690
750.33	2712
750.381	2688
750.432	2692
750.484	2606
750.535	2686
750.586	2728
750.637	2710
750.688	2668
750.739	2704
750.791	2706
750.842	2698
750.893	2674
750.944	2696
750.995	2680
751.046	2656
751.098	2706
751.149	2666
751.2	2630
751.251	2630
751.302	2638
751.353	2670
751.404	2638
751.456	2674
751.507	2608
751.558	2652
751.609	2618
751.66	2618
751.711	2624
751.763	2652
751.814	2554
751.865	2624
751.916	2592
751.967	2632
752.018	2634
752.07	2606
752.121	2556
752.172	2612
752.223	2602
752.274	2590
752.325	2614
752.376	2566
752.428	2598
752.479	2572
752.53	2598
752.581	2554
752.632	2574
752.683	2560
752.734	2550
752.786	2528
752.837	2542
752.888	2598
752.939	2554
752.99	2522
753.041	2578
753.092	2508
753.144	2548
753.195	2576
753.246	2524
753.297	2568
753.348	2486
753.399	2540
753.45	2516
753.502	2534
753.553	2528
753.604	2514
753.655	2502
753.706	2524
753.757	2526
753.808	2510
753.859	2474
753.911	2470
753.962	2514
754.013	2498
754.064	2468
754.115	2506
754.166	2454
754.217	2462
754.269	2462
754.32	2494
754.371	2444
754.422	2452
754.473	2490
754.524	2440
754.575	2460
754.626	2440
754.678	2446
754.729	2426
754.78	2454
754.831	2482
754.882	2484
754.933	2480
754.984	2444
755.035	2430
755.086	2394
755.138	2422
755.189	2452
755.24	2438
755.291	2394
755.342	2388
755.393	2472
755.444	2420
755.495	2408
755.547	2348
755.598	2406
755.649	2444
755.7	2380
755.751	2372
755.802	2364
755.853	2398
755.904	2398
755.955	2400
756.006	2360
756.058	2432
756.109	2402
756.16	2394
756.211	2358
756.262	2384
756.313	2366
756.364	2384
756.415	2392
756.466	2364
756.518	2366
756.569	2348
756.62	2350
756.671	2380
756.722	2370
756.773	2334
756.824	2334
756.875	2316
756.926	2348
756.977	2298
757.029	2320
757.08	2296
757.131	2366
757.182	2340
757.233	2308
757.284	2344
757.335	2278
757.386	2314
757.437	2308
757.488	2284
757.539	2358
757.59	2298
757.642	2328
757.693	2294
757.744	2316
757.795	2264
757.846	2304
757.897	2286
757.948	2316
757.999	2278
758.05	2246
758.101	2256
758.152	2324
758.203	2322
758.255	2260
758.306	2224
758.357	2266
758.408	2268
758.459	2296
758.51	2277.85
758.561	2208.43
758.612	2290.86
758.663	2216.77
758.714	2226.13
758.765	2270.12
758.816	2265.31
758.867	2229.6
758.919	2255.33
758.97	2213.57
759.021	2238.72
759.072	2218.45
759.123	2197.46
759.174	2270.17
759.225	2241.54
759.276	2215.19
759.327	2238
759.378	2215.72
759.429	2196.3
759.48	2258.03
759.531	2206.59
759.582	2231.77
759.633	2176.63
759.685	2183.45
759.736	2204.64
759.787	2157.03
759.838	2187.06
759.889	2176.3
759.94	2174.46
759.991	2173.46
760.042	2157
760.093	2158.27
760.144	2174.12
760.195	2119.21
760.246	2136.47
760.297	2195.85
760.348	2171.63
760.399	2117.53
760.45	2162.54
760.501	2163.08
760.552	2139.3
760.603	2173.19
760.655	2123.61
760.706	2131.28
760.757	2102.13
760.808	2113.25
760.859	2148.95
760.91	2129.12
760.961	2106.07
761.012	2125.71
761.063	2137.02
761.114	2110.02
761.165	2111.9
761.216	2104.74
761.267	2117.11
761.318	2115.37
761.369	2093.91
761.42	2085.14
761.471	2112.87
761.522	2129.81
761.573	2083.05
761.624	2099.17
761.675	2085.29
761.726	2107.49
761.777	2107.28
761.828	2074.49
761.88	2080.36
761.931	2088.16
761.982	2098.14
762.033	2093.07
762.084	2078.34
762.135	2068.28
762.186	2057.96
762.237	2066.23
762.288	2037.64
762.339	2038.17
762.39	2041
762.441	2078.8
762.492	2046.25
762.543	2006.03
762.594	2077.9
762.645	2026.92
762.696	2050.13
762.747	2038.82
762.798	2061.18
762.849	2044.31
762.9	2044.73
762.951	2033.76
763.002	2004.58
763.053	2032.62
763.104	2032
763.155	2063.87
763.206	2044.46
763.257	2032.08
763.308	1995.76
763.359	2008.85
763.41	2009.38
763.461	2006.62
763.512	2006.85
763.563	1996.09
763.614	2018.24
763.665	1994.38
763.678	1984
763.729	2006
763.78	1992
763.832	1996
763.883	1964
763.934	1972
763.986	1970
764.037	1988
764.088	1948
764.139	1940
764.191	1962
764.242	1966
764.293	1956
764.345	1948
764.396	1948
764.447	1946
764.498	1966
764.55	1980
764.601	1936
764.652	1922
764.704	1896
764.755	1936
764.806	1878
764.857	1948
764.909	1926
764.96	1968
765.011	1902
765.062	1922
765.114	1922
765.165	1950
765.216	1962
765.268	1908
765.319	1912
765.37	1916
765.421	1918
765.473	1894
765.524	1896
765.575	1884
765.626	1950
765.678	1892
765.729	1880
765.78	1954
765.831	1882
765.883	1892
765.934	1900
765.985	1926
766.036	1904
766.088	1902
766.139	1888
766.19	1878
766.242	1888
766.293	1866
766.344	1866
766.395	1862
766.447	1884
766.498	1880
766.549	1874
766.6	1834
766.652	1852
766.703	1864
766.754	1868
766.805	1858
766.857	1816
766.908	1816
766.959	1860
767.01	1842
767.062	1852
767.113	1832
767.164	1872
767.215	1776
767.267	1848
767.318	1826
767.369	1822
767.42	1810
767.472	1834
767.523	1788
767.574	1790
767.625	1868
767.677	1822
767.728	1780
767.779	1782
767.83	1820
767.882	1786
767.933	1842
767.984	1794
768.035	1812
768.087	1762
768.138	1760
768.189	1764
768.24	1800
768.292	1778
768.343	1780
768.394	1772
768.445	1810
768.497	1798
768.548	1794
768.599	1762
768.65	1824
768.701	1782
768.753	1760
768.804	1742
768.855	1776
768.906	1722
768.958	1764
769.009	1762
769.06	1728
769.111	1722
769.163	1722
769.214	1756
769.265	1750
769.316	1704
769.367	1716
769.419	1720
769.47	1714
769.521	1710
769.572	1752
769.624	1734
769.675	1706
769.726	1696
769.777	1730
769.828	1744
769.88	1750
769.931	1716
769.982	1708
770.033	1704
770.085	1712
770.136	1716
770.187	1678
770.238	1714
770.289	1686
770.341	1686
770.392	1646
770.443	1662
770.494	1672
770.546	1638
770.597	1664
770.648	1654
770.699	1636
770.75	1650
770.802	1676
770.853	1642
770.904	1656
770.955	1632
771.006	1660
771.058	1644
771.109	1688
771.16	1642
771.211	1600
771.263	1632
771.314	1650
771.365	1642
771.416	1652
771.467	1636
771.519	1598
771.57	1602
771.621	1608
771.672	1606
771.723	1584
771.775	1624
771.826	1612
771.877	1580
771.928	1638
771.979	1628
772.031	1612
772.082	1594
772.133	1572
772.184	1618
772.235	1616
772.287	1528
772.338	1554
772.389	1564
772.44	1608
772.491	1544
772.543	1546
772.594	1594
772.645	1568
772.696	1548
772.747	1616
772.799	1560
772.85	1584
772.901	1526
772.952	1526
773.003	1530
773.055	1570
773.106	1542
773.157	1552
773.208	1550
773.259	1580
773.31	1518
773.362	1554
773.413	1510
773.464	1564
773.515	1540
773.566	1566
773.618	1466
773.669	1482
773.72	1504
773.771	1560
773.822	1564
773.873	1516
773.925	1534
773.976	1532
774.027	1546
774.078	1490
774.129	1496
774.18	1494
774.232	1504
774.283	1468
774.334	1470
774.385	1442
774.436	1478
774.488	1544
774.539	1526
774.59	1466
774.641	1450
774.692	1490
774.743	1522
774.795	1484
774.846	1452
774.897	1480
774.948	1510
774.999	1478
775.05	1462
775.102	1464
775.153	1480
775.204	1482
775.255	1430
775.306	1440
775.357	1460
775.409	1448
775.46	1474
775.511	1434
775.562	1430
775.613	1418
775.664	1438
775.716	1432
775.767	1422
775.818	1442
775.869	1460
775.92	1384
775.971	1412
776.023	1436
776.074	1448
776.125	1404
776.176	1430
776.227	1434
776.278	1390
776.329	1404
776.381	1422
776.432	1402
776.483	1398
776.534	1418
776.585	1392
776.636	1432
776.688	1380
776.739	1382
776.79	1408
776.841	1382
776.892	1356
776.943	1364
776.994	1420
777.046	1388
777.097	1380
777.148	1376
777.199	1332
777.25	1392
777.301	1354
777.352	1382
777.404	1340
777.455	1362
777.506	1368
777.557	1386
777.608	1344
777.659	1382
777.71	1362
777.762	1358
777.813	1336
777.864	1318
777.915	1352
777.966	1360
778.017	1372
778.068	1362
778.12	1338
778.171	1334
778.222	1338
778.273	1326
778.324	1316
778.375	1322
778.426	1332
778.477	1324
778.529	1336
778.58	1318
778.631	1318
778.682	1302
778.733	1304
778.784	1332
778.835	1326
778.886	1308
778.938	1266
778.989	1344
779.04	1334
779.091	1314
779.142	1334
779.193	1286
779.244	1322
779.295	1338
779.347	1288
779.398	1312
779.449	1284
779.5	1308
779.551	1294
779.602	1258
779.653	1248
779.704	1280
779.755	1294
779.807	1282
779.858	1278
779.909	1294
779.96	1272
780.011	1276
780.062	1248
780.113	1266
780.164	1260
780.216	1280
780.267	1234
780.318	1290
780.369	1282
780.42	1256
780.471	1256
780.522	1282
780.573	1244
780.624	1256
780.675	1280
780.727	1246
780.778	1268
780.829	1248
780.88	1222
780.931	1264
780.982	1210
781.033	1238
781.084	1240
781.135	1220
781.187	1238
781.238	1218
781.289	1270
781.34	1226
781.391	1210
781.442	1236
781.493	1240
781.544	1248
781.595	1196
781.646	1232
781.698	1208
781.749	1202
781.8	1194
781.851	1220
781.902	1214
781.953	1196
782.004	1194
782.055	1182
782.106	1216
782.157	1178
782.208	1170
782.26	1240
782.311	1170
782.362	1204
782.413	1166
782.464	1188
782.515	1178
782.566	1170
782.617	1202
782.668	1188
782.719	1198
782.77	1212
782.821	1168
782.872	1172
782.924	1166
782.975	1180
783.026	1174
783.077	1130
783.128	1168
783.179	1198
783.23	1156
783.281	1168
783.332	1164
783.383	1180
783.434	1154
783.485	1164
783.536	1126
783.588	1118
783.639	1134
783.69	1144
783.741	1136
783.792	1102
783.843	1142
783.894	1154
783.945	1132
783.996	1138
784.047	1116
784.098	1126
784.149	1108
784.2	1102
784.252	1090
784.303	1102
784.354	1128
784.405	1116
784.456	1148
784.507	1110
784.558	1106
784.609	1104
784.66	1090
784.711	1112
784.762	1132
784.813	1118
784.864	1074
784.915	1094
784.966	1138
785.017	1102
785.068	1106
785.12	1086
785.171	1068
785.222	1096
785.273	1082
785.324	1104
785.375	1062
785.426	1080
785.477	1078
785.528	1052
785.579	1066
785.63	1074
785.681	1084
785.732	1076
785.783	1110
785.834	1078
785.885	1048
785.936	1054
785.987	1102
786.038	1036
786.089	1048
786.141	1066
786.192	1038
786.243	1042
786.294	1080
786.345	1064
786.396	1028
786.447	1038
786.498	1042
786.549	1062
786.6	1040
786.651	1026
786.702	1040
786.753	1018
786.804	1060
786.855	1030
786.906	1036
786.957	1046
787.008	1038
787.059	1036
787.11	1038
787.161	1044
787.212	1044
787.263	1044
787.314	1014
787.365	1008
787.416	1030
787.467	1038
787.518	1038
787.57	1016
787.621	1004
787.672	1002
787.723	1008
787.774	1044
787.825	986
787.876	1000
787.927	1046
787.978	958
788.029	1016
788.08	1020
788.131	1020
788.182	986
788.233	998
788.284	996
788.335	982
788.386	974
788.437	1002
788.488	968
788.539	984
788.59	984
788.641	990
788.692	964
788.743	978
788.794	1004
788.845	998
788.896	978
788.947	958
788.998	968
789.049	968
789.1	996
789.151	958
789.202	946
789.253	980
789.304	964
789.355	966
789.406	960
789.457	948
789.508	968
789.559	952
789.61	964
789.661	948
789.712	946
789.763	930
789.814	936
789.865	976
789.916	952
789.967	904
790.018	942
790.069	938
790.12	974
790.171	926
790.222	912
790.273	950
790.324	920
790.375	940
790.426	924
790.477	928
790.528	936
790.579	938
790.63	922
790.681	898
790.732	938
790.783	904
790.834	932
790.885	894
790.936	934
790.987	922
791.038	898
791.089	914
791.14	922
791.191	920
791.242	918
791.293	888
791.344	890
791.395	902
791.446	914
791.497	908
791.548	888
791.599	898
791.65	924
791.701	904
791.752	898
791.803	914
791.854	904
791.905	916
791.956	874
792.007	902
792.058	878
792.109	892
792.16	914
792.211	890
792.262	852
792.313	848
792.363	862
792.414	874
792.465	854
792.516	878
792.567	854
792.618	860
792.669	858
792.72	876
792.771	856
792.822	838
792.873	882
792.924	890
792.975	864
793.026	852
793.077	858
793.128	878
793.179	816
793.23	818
793.281	840
793.332	840
793.383	834
793.434	860
793.485	874
793.536	846
793.587	866
793.638	850
793.689	874
793.74	832
793.79	826
793.841	838
793.892	836
793.943	842
793.994	850
794.045	816
794.096	830
794.147	840
794.198	818
794.249	836
794.3	846
794.351	836
794.402	836
794.453	826
794.504	824
794.555	814
794.606	840
794.657	792
794.708	788
794.758	816
794.809	824
794.86	816
794.911	828
794.962	802
795.013	792
795.064	810
795.115	836
795.166	750
795.217	826
795.268	820
795.319	778
795.37	814
795.421	812
795.472	794
795.523	794
795.573	786
795.624	808
795.675	838
795.726	802
795.777	794
795.828	780
795.879	806
795.93	768
795.981	780
796.032	748
796.083	796
796.134	788
796.185	782
796.236	778
796.286	790
796.337	774
796.388	740
796.439	784
796.49	760
796.541	760
796.592	764
796.643	774
796.694	750
796.745	760
796.796	780
796.847	780
796.897	764
796.948	792
796.999	744
797.05	752
797.101	754
797.152	762
797.203	728
797.254	762
797.305	762
797.356	730
797.407	750
797.458	750
797.508	754
797.559	740
797.61	752
797.661	742
797.712	744
797.763	726
797.814	764
797.865	758
797.916	742
797.967	776
798.018	728
798.068	728
798.119	730
798.17	752
798.221	730
798.272	740
798.323	714
798.374	734
798.425	718
798.476	712
798.526	740
798.577	758
798.628	732
798.679	710
798.73	678
798.781	740
798.832	718
798.883	714
798.934	712
798.984	730
799.035	730
799.086	708
799.137	718
799.188	718
799.239	724
799.29	712
799.341	738
799.392	672
799.443	750
799.493	690
799.544	676
799.595	712
799.646	712
799.697	704
799.748	696
799.799	692
799.85	676
799.9	698
799.951	686
800.002	710
800.053	674
800.104	690
800.155	730
800.206	700
800.257	686
800.307	678
800.358	700
800.409	674
800.46	666
800.511	678
800.562	688
800.613	702
800.664	684
800.714	660
800.765	682
800.816	690
800.867	666
800.918	684
800.969	652
801.02	658
801.07	688
801.121	686
801.172	688
801.223	662
801.274	694
801.325	670
801.376	640
801.427	650
801.477	660
801.528	656
801.579	662
801.63	668
801.681	642
801.732	666
801.783	680
801.833	668
801.884	662
801.935	634
801.986	666
802.037	680
802.088	670
802.139	650
802.189	640
802.24	660
802.291	652
802.342	670
802.393	654
802.444	662
802.495	654
802.545	614
802.596	646
802.647	624
802.698	638
802.749	648
802.8	658
802.85	632
802.901	638
802.952	640
803.003	640
803.054	636
803.105	648
803.155	622
803.206	644
803.257	626
803.308	624
803.359	614
803.41	624
803.46	628
803.511	610
803.562	628
803.613	610
803.664	610
803.715	632
803.765	608
803.816	614
803.867	614
803.918	632
803.969	612
804.02	632
804.07	618
804.121	628
804.172	596
804.223	594
804.274	608
804.325	604
804.375	626
804.426	610
804.477	608
804.528	616
804.579	586
804.63	592
804.68	616
804.731	610
804.782	598
804.833	608
804.884	582
804.934	574
804.985	576
805.036	614
805.087	592
805.138	560
805.188	570
805.239	568
805.29	582
805.341	578
805.392	602
805.443	582
805.493	595.966
805.544	573.909
805.595	571.908
805.646	564.188
805.697	611.552
805.747	567.114
805.798	571.203
805.849	574.745
805.9	630.401
805.951	582.481
806.001	572.824
806.052	620.637
806.103	571.067
806.154	587.526
806.205	563.635
806.255	559.553
806.306	568.151
806.357	566.53
806.408	549.641
806.459	585.849
806.509	563.468
806.56	560.961
806.611	556.676
806.662	571.965
806.713	576.659
806.763	565.533
806.814	559.597
806.865	559.944
806.916	567.654
806.967	576.369
807.017	558.41
807.068	562.1
807.119	578.757
807.17	569.343
807.22	554.438
807.271	539.886
807.322	554.86
807.373	549.425
807.424	540.253
807.474	553.49
807.525	552.735
807.576	557.374
807.627	562.441
807.678	557.733
807.728	550.535
807.779	549.335
807.83	539.656
807.881	532.554
807.931	545.343
807.982	540.109
808.033	545.425
808.084	548.136
808.135	546.07
808.185	563.096
808.236	558.026
808.287	547.584
808.338	547.019
808.388	544.476
808.439	545.11
808.49	527.646
808.541	543.572
808.591	533.576
808.642	532.409
808.693	528.659
808.744	533.235
808.795	522.582
808.845	536.104
808.896	513.82
808.947	530.647
808.998	521.802
809.048	515.702
809.099	526.642
809.15	512.223
809.201	534
809.251	527.2
809.302	537.822
809.353	523.785
809.404	517.867
809.454	507.023
809.505	517.147
809.556	495.684
809.607	522.013
809.658	524.73
809.708	512.386
809.759	518.645
809.81	521.917
809.861	520
809.911	515.049
809.962	518.417
810.013	496.07
810.064	509.978
810.114	499.981
810.165	482.296
810.216	503.818
810.267	513.854
810.317	524.4
810.368	499.144
810.419	504.084
810.469	502.718
810.52	490.581
810.571	490.218
810.622	507.913
810.627	510
810.678	494
810.729	512
810.78	496
810.831	494
810.882	510
810.933	524
810.984	508
811.035	504
811.086	482
811.137	492
811.188	508
811.239	508
811.29	494
811.341	502
811.392	486
811.443	482
811.494	498
811.545	474
811.596	492
811.648	484
811.699	482
811.75	490
811.801	482
811.852	484
811.903	486
811.954	498
812.005	516
812.056	496
812.107	470
812.158	468
812.209	484
812.26	468
812.311	466
812.362	484
812.413	502
812.464	470
812.515	466
812.566	486
812.617	480
812.668	466
812.719	482
812.77	480
812.821	468
812.872	468
812.923	474
812.974	478
813.025	472
813.076	454
813.127	478
813.178	484
813.229	464
813.28	472
813.331	492
813.382	476
813.433	458
813.484	452
813.535	482
813.586	450
813.637	486
813.688	474
813.739	456
813.79	488
813.841	466
813.892	474
813.943	450
813.994	442
814.045	450
814.096	458
814.147	442
814.198	462
814.249	446
814.3	450
814.351	462
814.402	440
814.453	416
814.504	436
814.555	468
814.606	468
814.657	438
814.708	446
814.759	458
814.81	450
814.861	454
814.912	440
814.963	450
815.014	448
815.065	452
815.116	458
815.167	432
815.217	434
815.268	438
815.319	448
815.37	434
815.421	432
815.472	440
815.523	414
815.574	442
815.625	420
815.676	448
815.727	432
815.778	438
815.829	424
815.88	424
815.931	430
815.982	436
816.033	422
816.084	446
816.135	450
816.186	390
816.237	424
816.288	430
816.339	432
816.39	460
816.441	416
816.492	426
816.543	432
816.594	438
816.645	412
816.696	410
816.747	436
816.798	434
816.849	410
816.9	416
816.951	446
817.001	442
817.052	412
817.103	414
817.154	406
817.205	418
817.256	400
817.307	398
817.358	418
817.409	426
817.46	396
817.511	406
817.562	418
817.613	410
817.664	410
817.715	410
817.766	422
817.817	410
817.868	404
817.919	418
817.97	398
818.021	418
818.071	418
818.122	400
818.173	410
818.224	406
818.275	406
818.326	414
818.377	384
818.428	408
818.479	416
818.53	402
818.581	402
818.632	390
818.683	380
818.734	390
818.785	390
818.836	388
818.887	380
818.938	412
818.988	368
819.039	390
819.09	402
819.141	400
819.192	394
819.243	410
819.294	398
819.345	396
819.396	394
819.447	402
819.498	378
819.549	392
819.6	400
819.651	388
819.702	382
819.753	384
819.803	408
819.854	390
819.905	404
819.956	386
820.007	382
820.058	370
820.109	366
820.16	386
820.211	380
820.262	380
820.313	368
820.364	382
820.415	368
820.465	392
820.516	358
820.567	390
820.618	386
820.669	372
820.72	364
820.771	388
820.822	362
820.873	362
820.924	370
820.975	366
821.026	368
821.076	364
821.127	380
821.178	384
821.229	370
821.28	380
821.331	362
821.382	370
821.433	358
821.484	372
821.535	372
821.586	350
821.637	378
821.687	380
821.738	364
821.789	366
821.84	376
821.891	364
821.942	362
821.993	350
822.044	374
822.095	352
822.146	344
822.196	364
822.247	346
822.298	382
822.349	342
822.4	358
822.451	374
822.502	368
822.553	362
822.604	338
822.655	370
822.706	342
822.756	378
822.807	360
822.858	352
822.909	350
822.96	356
823.011	340
823.062	354
823.113	356
823.164	344
823.214	346
823.265	354
823.316	358
823.367	344
823.418	344
823.469	346
823.52	356
823.571	338
823.622	348
823.672	364
823.723	350
823.774	364
823.825	338
823.876	332
823.927	350
823.978	352
824.029	342
824.08	342
824.13	334
824.181	336
824.232	346
824.283	346
824.334	334
824.385	338
824.436	334
824.487	334
824.537	346
824.588	350
824.639	326
824.69	328
824.741	328
824.792	318
824.843	346
824.893	346
824.944	340
824.995	336
825.046	356
825.097	334
825.148	342
825.199	334
825.25	334
825.3	330
825.351	322
825.402	346
825.453	334
825.504	328
825.555	330
825.606	328
825.657	318
825.707	318
825.758	328
825.809	334
825.86	316
825.911	328
825.962	328
826.013	330
826.063	316
826.114	342
826.165	312
826.216	328
826.267	332
826.318	336
826.369	338
826.419	314
826.47	310
826.521	330
826.572	318
826.623	330
826.674	308
826.725	330
826.775	314
826.826	312
826.877	312
826.928	334
826.979	308
827.03	310
827.08	298
827.131	320
827.182	316
827.233	316
827.284	314
827.335	306
827.386	316
827.436	312
827.487	304
827.538	320
827.589	310
827.64	296
827.691	312
827.741	316
827.792	320
827.843	308
827.894	294
827.945	304
827.996	318
828.046	310
828.097	316
828.148	302
828.199	306
828.25	300
828.301	330
828.351	298
828.402	306
828.453	318
828.504	286
828.555	300
828.606	294
828.656	302
828.707	308
828.758	296
828.809	316
828.86	300
828.911	306
828.961	306
829.012	310
829.063	308
829.114	300
829.165	300
829.216	308
829.266	288
829.317	298
829.368	296
829.419	284
829.47	312
829.52	290
829.571	302
829.622	306
829.673	292
829.724	310
829.774	286
829.825	278
829.876	276
829.927	288
829.978	280
830.029	278
830.079	284
830.13	306
830.181	314
830.232	286
830.283	296
830.333	286
830.384	294
830.435	294
830.486	300
830.537	288
830.587	300
830.638	288
830.689	310
830.74	290
830.791	316
830.841	276
830.892	290
830.943	286
830.994	272
831.045	292
831.095	280
831.146	300
831.197	270
831.248	274
831.299	284
831.349	278
831.4	284
831.451	274
831.502	282
831.553	288
831.603	282
831.654	282
831.705	282
831.756	286
831.807	296
831.857	284
831.908	298
831.959	294
832.01	266
832.061	276
832.111	280
832.162	288
832.213	276
832.264	278
832.315	262
832.365	294
832.416	280
832.467	272
832.518	276
832.568	288
832.619	272
832.67	288
832.721	270
832.772	274
832.822	292
832.873	252
832.924	270
832.975	258
833.025	250
833.076	274
833.127	270
833.178	288
833.229	266
833.279	280
833.33	278
833.381	282
833.432	270
833.482	268
833.533	272
833.584	276
833.635	270
833.685	274
833.736	258
833.787	272
833.838	252
833.889	274
833.939	250
833.99	274
834.041	276
834.092	272
834.142	258
834.193	262
834.244	272
834.295	266
834.345	270
834.396	254
834.447	286
834.498	250
834.548	254
834.599	276
834.65	260
834.701	268
834.751	260
834.802	264
834.853	256
834.904	270
834.954	270
835.005	274
835.056	250
835.107	242
835.157	264
835.208	278
835.259	270
835.31	258
835.36	244
835.411	262
835.462	248
835.513	270
835.563	262
835.614	258
835.665	256
835.716	258
835.766	246
835.817	262
835.868	252
835.919	254
835.969	240
836.02	254
836.071	250
836.122	250
836.172	240
836.223	262
836.274	240
836.325	230
836.375	240
836.426	264
836.477	256
836.528	236
836.578	238
836.629	254
836.68	256
836.73	232
836.781	260
836.832	252
836.883	256
836.933	236
836.984	256
837.035	244
837.086	248
837.136	244
837.187	256
837.238	250
837.288	252
837.339	240
837.39	258
837.441	242
837.491	246
837.542	232
837.593	234
837.643	260
837.694	244
837.745	234
837.796	248
837.846	226
837.897	250
837.948	252
837.999	232
838.049	234
838.1	248
838.151	242
838.201	254
838.252	244
838.303	234
838.354	256
838.404	242
838.455	240
838.506	226
838.556	234
838.607	240
838.658	226
838.708	228
838.759	234
838.81	238
838.861	234
838.911	244
838.962	248
839.013	230
839.063	244
839.114	224
839.165	240
839.216	244
839.266	226
839.317	226
839.368	256
839.418	232
839.469	238
839.52	214
839.57	238
839.621	218
839.672	238
839.722	232
839.773	236
839.824	234
839.875	240
839.925	232
839.976	234
840.027	252
840.077	238
840.128	234
840.179	244
840.229	226
840.28	230
840.331	226
840.381	252
840.432	234
840.483	244
840.534	234
840.584	228
840.635	210
840.686	226
840.736	206
840.787	234
840.838	218
840.888	216
840.939	224
840.99	230
841.04	222
841.091	218
841.142	212
841.192	220
841.243	230
841.294	232
841.344	232
841.395	236
841.446	238
841.496	218
841.547	230
841.598	212
841.648	214
841.699	216
841.75	224
841.8	212
841.851	226
841.902	216
841.952	232
842.003	196
842.054	200
842.104	206
842.155	222
842.206	214
842.256	218
842.307	228
842.358	230
842.408	226
842.459	222
842.51	226
842.56	228
842.611	220
842.662	230
842.712	218
842.763	224
842.814	208
842.864	220
842.915	222
842.966	224
843.016	230
843.067	228
843.118	226
843.168	218
843.219	202
843.269	208
843.32	220
843.371	216
843.421	214
843.472	208
843.523	224
843.573	212
843.624	216
843.675	208
843.725	210
843.776	222
843.827	222
843.877	196
843.928	208
843.979	194
844.029	212
844.08	210
844.13	208
844.181	214
844.232	196
844.282	212
844.333	210
844.384	210
844.434	202
844.485	210
844.536	208
844.586	210
844.637	210
844.687	208
844.738	202
844.789	202
844.839	200
844.89	202
844.941	218
844.991	206
845.042	196
845.092	216
845.143	200
845.194	202
845.244	208
845.295	214
845.346	204
845.396	194
845.447	214
845.497	206
845.548	206
845.599	206
845.649	210
845.7	202
845.75	214
845.801	210
845.852	208
845.902	206
845.953	196
846.004	210
846.054	196
846.105	218
846.155	188
846.206	194
846.257	208
846.307	206
846.358	196
846.409	194
846.459	216
846.51	200
846.56	206
846.611	196
846.661	208
846.712	190
846.763	202
846.813	200
846.864	190
846.915	188
846.965	204
847.016	198
847.066	190
847.117	182
847.168	186
847.218	204
847.269	196
847.319	204
847.37	206
847.421	186
847.471	176
847.522	204
847.572	196
847.623	198
847.674	212
847.724	184
847.775	190
847.825	190
847.876	210
847.926	188
847.977	196
848.028	186
848.078	196
848.129	178
848.179	184
848.23	182
848.281	194
848.331	192
848.382	174
848.432	180
848.483	200
848.534	186
848.584	202
848.635	182
848.685	184
848.736	180
848.786	188
848.837	188
848.888	182
848.938	178
848.989	188
849.039	196
849.09	190
849.14	202
849.191	176
849.242	198
849.292	174
849.343	190
849.393	198
849.444	196
849.494	182
849.545	188
849.596	194
849.646	196
849.697	180
849.747	186
849.798	186
849.848	182
849.899	180
849.95	184
850	192
850.051	182
850.101	174
850.152	180
850.202	174
850.253	188
850.303	170
850.354	180
850.405	182
850.455	186
850.506	184
850.556	184
850.607	192
850.657	190
850.708	178
850.758	174
850.809	184
850.86	180
850.91	178
850.961	164
851.011	172
851.062	182
851.112	194
851.163	178
851.213	180
851.264	164
851.314	174
851.365	174
851.416	196
851.466	180
851.517	174
851.567	180
851.618	168
851.668	178
851.719	178
851.769	172
851.82	176
851.87	170
851.921	172
851.971	170
852.022	184
852.073	176
852.123	162
852.174	176
852.224	188
852.275	174
852.325	180.019
852.376	166.205
852.426	179.653
852.477	175.858
852.527	175.642
852.578	173.891
852.628	170.519
852.679	161.713
852.729	177.305
852.78	177.054
852.831	177.564
852.881	176.872
852.932	171.982
852.982	169.495
853.033	170.248
853.083	165.757
853.134	162.951
853.184	173.605
853.235	169.084
853.285	171.309
853.336	165.196
853.386	172.749
853.437	173.705
853.487	167.294
853.538	160.348
853.588	179.92
853.639	162.185
853.689	167.313
853.74	168.643
853.79	168.854
853.841	156.355
853.891	167.677
853.942	165.603
853.992	162.43
854.043	163.068
854.093	165.315
854.144	166.217
854.194	174.311
854.245	169.608
854.295	162.42
854.346	164.221
854.396	163.832
854.447	165.234
854.497	162.206
854.548	160.508
854.598	164.139
854.649	161.073
854.699	154.6
854.75	163.289
854.8	156.87
854.851	167.221
854.901	155.43
854.952	154.403
855.002	164.082
855.053	158.546
855.103	164.025
855.154	158.562
855.204	157.393
855.255	155.66
855.305	158.067
855.356	166.66
855.406	159.373
855.457	164.854
855.507	165.742
855.558	166.146
855.608	159.827
855.659	148.772
855.709	154.692
855.76	157.649
855.81	150.805
855.861	154.732
855.911	158
855.962	158.694
856.012	156.064
856.063	154.406
856.113	166.537
856.164	165.979
856.214	155.097
856.265	157.595
856.315	157.652
856.366	154.639
856.416	152.927
856.467	158.766
856.517	160.032
856.568	150.599
856.618	150.965
856.668	152.415
856.719	154.138
856.769	158.373
856.82	154.351
856.87	152.19
856.921	147.791
856.971	149.572
857.022	154.974
857.072	151.634
857.123	162.121
857.173	158.459
857.224	148.29
857.274	151.867
857.325	154.03
857.352	154
857.403	152
857.453	166
857.504	148
857.555	162
857.606	146
857.656	154
857.707	152
857.758	156
857.809	140
857.859	160
857.91	152
857.961	144
858.012	158
858.063	148
858.113	152
858.164	156
858.215	146
858.266	150
858.316	172
858.367	152
858.418	140
858.469	144
858.519	144
858.57	160
858.621	148
858.672	160
858.722	138
858.773	146
858.824	148
858.875	148
858.925	150
858.976	154
859.027	138
859.078	160
859.128	152
859.179	132
859.23	142
859.281	158
859.331	152
859.382	142
859.433	144
859.483	148
859.534	156
859.585	136
859.636	142
859.686	146
859.737	158
859.788	148
859.839	138
859.889	154
859.94	138
859.991	150
860.042	152
860.092	138
860.143	152
860.194	144
860.245	150
860.295	144
860.346	138
860.397	146
860.447	140
860.498	142
860.549	146
860.6	128
860.65	148
860.701	152
860.752	136
860.802	132
860.853	136
860.904	144
860.955	148
861.005	134
861.056	142
861.107	134
861.158	142
861.208	130
861.259	152
861.31	140
861.36	144
861.411	148
861.462	136
861.513	162
861.563	146
861.614	134
861.665	132
861.715	144
861.766	150
861.817	140
861.868	144
861.918	144
861.969	132
862.02	138
862.07	164
862.121	146
862.172	134
862.223	142
862.273	150
862.324	138
862.375	112
862.425	148
862.476	128
862.527	138
862.577	124
862.628	142
862.679	160
862.73	138
862.78	138
862.831	148
862.882	136
862.932	128
862.983	144
863.034	148
863.084	134
863.135	142
863.186	138
863.237	142
863.287	138
863.338	134
863.389	136
863.439	152
863.49	140
863.541	124
863.591	140
863.642	136
863.693	144
863.744	134
863.794	126
863.845	140
863.896	140
863.946	130
863.997	132
864.048	128
864.098	144
864.149	126
864.2	138
864.25	138
864.301	134
864.352	126
864.402	126
864.453	130
864.504	136
864.555	126
864.605	136
864.656	144
864.707	124
864.757	136
864.808	130
864.859	128
864.909	136
864.96	136
865.011	134
865.061	120
865.112	126
865.163	128
865.213	132
865.264	130
865.315	128
865.365	134
865.416	142
865.467	132
865.517	126
865.568	128
865.619	124
865.669	142
865.72	120
865.771	126
865.821	138
865.872	130
865.923	130
865.973	128
866.024	134
866.075	132
866.125	128
866.176	116
866.227	132
866.277	132
866.328	132
866.379	118
866.429	126
866.48	126
866.531	128
866.581	142
866.632	132
866.683	124
866.733	132
866.784	130
866.835	128
866.885	118
866.936	128
866.987	134
867.037	142
867.088	122
867.138	130
867.189	116
867.24	126
867.29	126
867.341	118
867.392	136
867.442	136
867.493	122
867.544	120
867.594	122
867.645	114
867.696	122
867.746	122
867.797	128
867.848	138
867.898	126
867.949	128
867.999	130
868.05	118
868.101	116
868.151	126
868.202	122
868.253	124
868.303	114
868.354	126
868.405	120
868.455	122
868.506	112
868.556	124
868.607	122
868.658	122
868.708	122
868.759	120
868.81	120
868.86	114
868.911	122
868.961	126
869.012	114
869.063	120
869.113	122
869.164	126
869.215	120
869.265	132
869.316	130
869.367	118
869.417	130
869.468	118
869.518	126
869.569	104
869.62	120
869.67	108
869.721	122
869.771	118
869.822	122
869.873	116
869.923	126
869.974	124
870.025	130
870.075	114
870.126	116
870.176	126
870.227	118
870.278	122
870.328	118
870.379	128
870.43	124
870.48	124
870.531	114
870.581	112
870.632	108
870.683	112
870.733	130
870.784	114
870.834	116
870.885	110
870.936	128
870.986	126
871.037	112
871.087	110
871.138	126
871.189	114
871.239	104
871.29	120
871.34	120
871.391	122
871.442	110
871.492	124
871.543	120
871.593	112
871.644	102
871.695	106
871.745	114
871.796	114
871.846	112
871.897	114
871.948	108
871.998	114
872.049	116
872.099	112
872.15	116
872.201	116
872.251	112
872.302	108
872.352	102
872.403	118
872.453	120
872.504	118
872.555	122
872.605	116
872.656	114
872.706	118
872.757	106
872.808	120
872.858	114
872.909	116
872.959	120
873.01	112
873.06	116
873.111	124
873.162	108
873.212	106
873.263	116
873.313	120
873.364	116
873.415	110
873.465	116
873.516	112
873.566	116
873.617	110
873.667	104
873.718	122
873.769	120
873.819	110
873.87	104
873.92	112
873.971	108
874.021	108
874.072	108
874.123	104
874.173	112
874.224	98
874.274	110
874.325	106
874.375	108
874.426	100
874.477	114
874.527	114
874.578	112
874.628	106
874.679	102
874.729	112
874.78	100
874.83	102
874.881	116
874.932	106
874.982	112
875.033	106
875.083	116
875.134	108
875.184	108
875.235	102
875.285	118
875.336	118
875.387	98
875.437	100
875.488	112
875.538	110
875.589	96
875.639	98
875.69	106
875.74	114
875.791	108
875.841	104
875.892	112
875.943	102
875.993	112
876.044	114
876.094	118
876.145	112
876.195	98
876.246	114
876.296	106
876.347	112
876.397	94
876.448	100
876.499	102
876.549	106
876.6	98
876.65	100
876.701	102
876.751	112
876.802	94
876.852	114
876.903	104
876.953	98
877.004	112
877.054	110
877.105	108
877.155	92
877.206	104
877.257	96
877.307	110
877.358	102
877.408	108
877.459	110
877.509	106
877.56	106
877.61	98
877.661	98
877.711	104
877.762	98
877.812	108
877.863	110
877.913	108
877.964	96
878.014	108
878.065	106
878.115	92
878.166	92
878.216	104
878.267	104
878.318	84
878.368	94
878.419	108
878.469	106
878.52	102
878.57	98
878.621	118
878.671	106
878.722	100
878.772	96
878.823	106
878.873	112
878.924	112
878.974	98
879.025	106
879.075	100
879.126	98
879.176	98
879.227	104
879.277	104
879.328	94
879.378	102
879.429	104
879.479	104
879.53	92
879.58	98
879.631	114
879.681	100
879.732	98
879.782	100
879.833	106
879.883	110
879.934	104
879.984	98
880.035	98
880.085	102
880.136	94
880.186	98
880.237	110
880.287	104
880.338	84
880.388	102
880.439	92
880.489	96
880.54	94
880.59	102
880.641	102
880.691	94
880.742	104
880.792	104
880.842	92
880.893	86
880.943	96
880.994	104
881.044	98
881.095	108
881.145	100
881.196	102
881.246	94
881.297	96
881.347	98
881.398	92
881.448	98
881.499	92
881.549	96
881.6	110
881.65	98
881.701	100
881.751	98
881.802	96
881.852	102
881.902	76
881.953	94
882.003	104
882.054	92
882.104	94
882.155	100
882.205	102
882.256	102
882.306	96
882.357	94
882.407	92
882.458	98
882.508	90
882.559	102
882.609	102
882.659	84
882.71	92
882.76	98
882.811	106
882.861	94
882.912	94
882.962	92
883.013	92
883.063	92
883.114	104
883.164	98
883.214	96
883.265	80
883.315	96
883.366	82
883.416	92
883.467	84
883.517	84
883.568	100
883.618	98
883.669	88
883.719	86
883.769	94
883.82	96
883.87	94
883.921	98
883.971	100
884.022	90
884.072	86
884.123	90
884.173	94
884.223	90
884.274	86
884.324	90
884.375	96
884.425	88
884.476	88
884.526	82
884.577	94
884.627	100
884.677	84
884.728	94
884.778	88
884.829	88
884.879	78
884.93	88
884.98	90
885.03	80
885.081	82
885.131	94
885.182	90
885.232	76
885.283	78
885.333	94
885.383	90
885.434	92
885.484	86
885.535	96
885.585	86
885.635	82
885.686	94
885.736	94
885.787	88
885.837	86
885.888	88
885.938	86
885.988	92
886.039	80
886.089	86
886.14	100
886.19	80
886.241	86
886.291	92
886.341	84
886.392	82
886.442	86
886.493	86
886.543	96
886.593	86
886.644	74
886.694	92
886.745	86
886.795	84
886.845	76
886.896	86
886.946	102
886.997	78
887.047	78
887.097	94
887.148	90
887.198	72
887.249	90
887.299	98
887.349	88
887.4	82
887.45	80
887.501	92
887.551	82
887.602	86
887.652	92
887.702	78
887.753	82
887.803	82
887.853	88
887.904	92
887.954	92
888.005	94
888.055	84
888.105	92
888.156	78
888.206	78
888.257	98
888.307	86
888.357	82
888.408	72
888.458	84
888.509	86
888.559	90
888.609	78
888.66	78
888.71	78
888.76	76
888.811	78
888.861	78
888.912	90
888.962	76
889.012	74
889.063	82
889.113	92
889.163	82
889.214	82
889.264	94
889.315	86
889.365	80
889.415	80
889.466	84
889.516	80
889.566	86
889.617	82
889.667	88
889.718	86
889.768	80
889.818	76
889.869	86
889.919	88
889.969	80
890.02	76
890.07	82
890.12	80
890.171	82
890.221	82
890.272	90
890.322	92
890.372	82
890.423	74
890.473	76
890.523	72
890.574	76
890.624	84
890.674	82
890.725	82
890.775	78
890.826	82
890.876	84
890.926	68
890.977	72
891.027	80
891.077	88
891.128	82
891.178	78
891.228	76
891.279	82
891.329	72
891.379	82
891.43	82
891.48	80
891.53	74
891.581	78
891.631	76
891.681	80
891.732	76
891.782	78
891.832	92
891.883	80
891.933	76
891.983	82
892.034	82
892.084	76
892.134	76
892.185	74
892.235	78
892.286	70
892.336	70
892.386	78
892.437	74
892.487	80
892.537	80
892.587	76
892.638	76
892.688	82
892.738	76
892.789	76
892.839	76
892.889	80
892.94	64
892.99	74
893.04	82
893.091	70
893.141	76
893.191	74
893.242	74
893.292	76
893.342	68
893.393	82
893.443	60
893.493	72
893.544	82
893.594	76
893.644	80
893.695	66
893.745	70
893.795	78
893.846	76
893.896	68
893.946	82
893.996	66
894.047	86
894.097	64
894.147	82
894.198	76
894.248	76
894.298	78
894.349	78
894.399	66
894.449	70
894.5	76
894.55	82
894.6	84
894.65	76
894.701	70
894.751	68
894.801	70
894.852	66
894.902	68
894.952	72
895.003	78
895.053	78
895.103	70
895.153	76
895.204	72
895.254	72
895.304	70
895.355	76
895.405	82
895.455	68
895.505	74
895.556	64
895.606	68
895.656	80
895.707	76
895.757	70
895.807	72
895.858	68
895.908	74
895.958	72
896.008	80
896.059	60
896.109	74
896.159	72
896.21	74
896.26	64
896.31	74
896.36	70
896.411	78
896.461	68
896.511	76
896.561	64
896.612	72
896.662	70
896.712	84
896.763	70
896.813	58
896.863	62
896.913	74
896.964	74
897.014	70
897.064	68
897.115	62
897.165	78
897.215	60
897.265	68
897.316	74
897.366	68
897.416	72
897.466	60
897.517	72
897.567	80
897.617	58
897.667	64
897.718	64
897.768	78
897.818	70
897.868	72
897.919	60
897.969	70
898.019	62
898.069	58
898.12	78
898.17	74
898.22	66
898.27	64
898.321	56
898.371	72
898.421	64
898.471	62
898.522	70
898.572	68
898.622	76
898.672	72
898.723	68
898.773	58
898.823	72
898.873	76
898.924	70
898.974	72
899.024	52
899.074	72
899.125	66
899.175	60
899.225	74
899.275	72
899.326	68
899.376	68
899.426	64
899.476	62
899.527	66
899.577	62
899.627	60
899.677	70
899.728	76
899.778	72
899.828	74
899.878	64
899.928	66
899.979	68
