#Acq. time (s)=	5
#Accumulations=	2
#Range (nm)=	520...900
#Windows=	8
#Auto scanning=	Off
#Autofocus=	Off
#AutoExposure=	Off
#Spike filter=	Multiple accum.
#Delay time (s)=	0
#Binning=	1
#Readout mode=	Signal
#DeNoise=	Off
#ICS correction=	Off
#Dark correction=	Off
#Inst. Process=	Off
#Detector temperature (°C)=	-59.98
#Instrument=	LabRAM HR Evol
#Detector=	Syncerity OE
#Objective=	x50_VIS
#Grating=	600 (500nm)
#ND Filter=	10%
#Laser=	514nm_Edge
#Hole=	199.981
#Range=	Auto
#StageXY=	Marzhauser
#StageZ=	Marzhauser
#X (µm)=	-24016.1
#Y (µm)=	7454.1
#Z (µm)=	16.8
#Full time(mm:ss)=	1:54
#Project=	
#Sample=	
#Site=	
#Title=	MS_091025
#Remark=	
#Date=	13.10.2023 16:29
#Acquired=	13.10.2023 16:29:59
520.044	50
520.097	44
520.149	48
520.201	50
520.254	52
520.306	50
520.359	44
520.411	50
520.464	40
520.516	42
520.569	50
520.621	42
520.674	42
520.726	50
520.778	48
520.831	36
520.883	40
520.936	34
520.988	40
521.041	40
521.093	46
521.146	40
521.198	36
521.25	42
521.303	50
521.355	40
521.408	40
521.46	42
521.513	32
521.565	50
521.617	40
521.67	50
521.722	36
521.775	48
521.827	40
521.88	48
521.932	38
521.984	52
522.037	38
522.089	46
522.142	40
522.194	44
522.247	46
522.299	48
522.352	56
522.404	56
522.456	36
522.509	40
522.561	44
522.614	46
522.666	48
522.719	48
522.771	42
522.823	40
522.876	48
522.928	52
522.981	42
523.033	48
523.086	52
523.138	48
523.19	40
523.243	40
523.295	46
523.348	50
523.4	52
523.453	52
523.505	52
523.557	48
523.61	46
523.662	48
523.715	46
523.767	44
523.82	54
523.872	46
523.924	54
523.977	38
524.029	44
524.082	42
524.134	50
524.186	48
524.239	50
524.291	46
524.344	44
524.396	42
524.449	58
524.501	42
524.553	46
524.606	34
524.658	54
524.711	40
524.763	38
524.815	40
524.868	50
524.92	48
524.973	52
525.025	48
525.078	44
525.13	46
525.182	44
525.235	50
525.287	50
525.34	48
525.392	48
525.444	52
525.497	54
525.549	48
525.602	50
525.654	46
525.706	54
525.759	48
525.811	50
525.864	54
525.916	50
525.969	50
526.021	46
526.073	58
526.126	48
526.178	52
526.231	50
526.283	56
526.335	44
526.388	44
526.44	48
526.493	50
526.545	46
526.597	52
526.65	52
526.702	48
526.755	50
526.807	46
526.859	52
526.912	62
526.964	38
527.017	50
527.069	48
527.121	44
527.174	44
527.226	54
527.279	54
527.331	52
527.383	48
527.436	44
527.488	52
527.54	54
527.593	42
527.645	52
527.698	52
527.75	52
527.802	46
527.855	38
527.907	54
527.96	48
528.012	46
528.064	52
528.117	56
528.169	56
528.222	58
528.274	38
528.326	54
528.379	52
528.431	60
528.484	52
528.536	52
528.588	54
528.641	60
528.693	46
528.745	64
528.798	56
528.85	52
528.903	44
528.955	60
529.007	42
529.06	56
529.112	56
529.164	60
529.217	50
529.269	50
529.322	46
529.374	52
529.426	52
529.479	42
529.531	56
529.584	54
529.636	54
529.688	52
529.741	52
529.793	46
529.845	60
529.898	46
529.95	54
530.003	58
530.055	48
530.107	66
530.16	54
530.212	58
530.264	50
530.317	48
530.369	60
530.422	50
530.474	50
530.526	54
530.579	62
530.631	50
530.683	50
530.736	56
530.788	62
530.841	56
530.893	54
530.945	48
530.998	66
531.05	50
531.102	58
531.155	54
531.207	58
531.259	54
531.312	64
531.364	52
531.417	66
531.469	56
531.521	64
531.574	50
531.626	68
531.678	56
531.731	52
531.783	52
531.835	60
531.888	50
531.94	62
531.992	52
532.045	56
532.097	54
532.15	66
532.202	54
532.254	52
532.307	52
532.359	56
532.411	64
532.464	58
532.516	64
532.568	60
532.621	62
532.673	64
532.726	58
532.778	60
532.83	60
532.883	58
532.935	60
532.987	56
533.04	60
533.092	58
533.144	58
533.197	54
533.249	62
533.301	54
533.354	60
533.406	58
533.458	64
533.511	52
533.563	66
533.615	50
533.668	72
533.72	62
533.773	68
533.825	64
533.877	68
533.93	56
533.982	62
534.034	52
534.087	66
534.139	58
534.191	70
534.244	66
534.296	70
534.348	60
534.401	74
534.453	70
534.505	74
534.558	64
534.61	70
534.662	72
534.715	60
534.767	66
534.819	80
534.872	68
534.924	70
534.976	74
535.029	70
535.081	78
535.133	74
535.186	78
535.238	66
535.29	68
535.343	74
535.395	74
535.447	76
535.5	84
535.552	70
535.604	72
535.657	54
535.709	64
535.761	66
535.814	78
535.866	70
535.918	74
535.971	64
536.023	64
536.075	72
536.128	68
536.18	66
536.232	64
536.285	66
536.337	74
536.389	56
536.442	68
536.494	68
536.546	62
536.599	60
536.651	78
536.703	64
536.755	74
536.808	70
536.86	76
536.912	68
536.965	80
537.017	66
537.069	74
537.122	74
537.174	66
537.226	62
537.279	64
537.331	72
537.383	68
537.436	80
537.488	66
537.54	72
537.593	68
537.645	74
537.697	72
537.75	72
537.802	76
537.854	78
537.906	74
537.959	70
538.011	76
538.063	68
538.116	78
538.168	76
538.22	80
538.273	74
538.325	62
538.377	74
538.43	64
538.482	88
538.534	76
538.586	76
538.639	70
538.691	74
538.743	78
538.796	68
538.848	72
538.9	88
538.953	74
539.005	92
539.057	74
539.109	80
539.162	64
539.214	72
539.266	68
539.319	76
539.371	72
539.423	84
539.476	72
539.528	82
539.58	70
539.633	84
539.685	80
539.737	80
539.789	82
539.842	78
539.894	64
539.946	82
539.999	90
540.051	90
540.103	84
540.155	82
540.208	84
540.26	86
540.312	86
540.365	76
540.417	88
540.469	80
540.521	88
540.574	76
540.626	86
540.678	86
540.731	88
540.783	86
540.835	80
540.888	78
540.94	76
540.992	74
541.044	88
541.097	86
541.149	90
541.201	88
541.254	94
541.306	90
541.358	76
541.41	86
541.463	84
541.515	82
541.567	88
541.62	90
541.672	96
541.724	76
541.776	82
541.829	88
541.881	86
541.933	84
541.985	96
542.038	84
542.09	86
542.142	82
542.195	88
542.247	102
542.299	96
542.351	100
542.404	82
542.456	90
542.508	82
542.56	94
542.613	94
542.665	98
542.717	98
542.77	90
542.822	100
542.874	98
542.926	100
542.979	94
543.031	92
543.083	94
543.135	102
543.188	104
543.24	100
543.292	94
543.344	94
543.397	92
543.449	96
543.501	108
543.554	96
543.606	96
543.658	98
543.71	98
543.763	96
543.815	98
543.867	92
543.919	110
543.972	92
544.024	110
544.076	106
544.128	102
544.181	94
544.233	110
544.285	104
544.337	86
544.39	92
544.442	100
544.494	106
544.547	104
544.599	108
544.651	104
544.703	116
544.755	92
544.808	108
544.86	110
544.912	106
544.965	104
545.017	116
545.069	108
545.121	108
545.174	110
545.226	106
545.278	108
545.33	124
545.383	110
545.435	110
545.487	106
545.539	116
545.591	120
545.644	120
545.696	114
545.748	130
545.8	110
545.853	122
545.905	102
545.957	106
546.009	102
546.062	128
546.114	102
546.166	118
546.218	120
546.271	134
546.323	122
546.375	120
546.427	118
546.48	126
546.532	114
546.584	136
546.636	118
546.689	114
546.741	120
546.793	124
546.845	134
546.898	130
546.95	126
547.002	128
547.054	128
547.106	128
547.159	136
547.211	138
547.263	134
547.315	128
547.368	132
547.42	130
547.472	136
547.524	134
547.577	142
547.629	138
547.681	138
547.733	136
547.785	144
547.838	130
547.89	152
547.942	134
547.994	142
548.047	144
548.099	148
548.151	154
548.203	146
548.255	146
548.308	158
548.36	152
548.412	160
548.464	142
548.517	150
548.569	148
548.621	144
548.673	136
548.725	146
548.778	146
548.83	156
548.882	150
548.934	142
548.987	154
549.039	156
549.091	144
549.143	164
549.195	136
549.248	148
549.3	166
549.352	166
549.404	156
549.456	160
549.509	154
549.561	168
549.613	162
549.665	150
549.718	158
549.77	170
549.822	158
549.874	152
549.926	154
549.979	154
550.031	172
550.083	168
550.135	180
550.187	172
550.24	172
550.292	180
550.344	188
550.396	168
550.448	178
550.501	168
550.553	176
550.605	180
550.657	192
550.709	182
550.762	182
550.814	180
550.866	186
550.918	186
550.97	196
551.023	212
551.075	180
551.127	192
551.179	194
551.231	188
551.284	196
551.336	192
551.388	218
551.44	210
551.492	230
551.545	222
551.597	212
551.649	242
551.701	242
551.753	238
551.806	240
551.858	254
551.91	264
551.962	290
552.014	312
552.067	326
552.119	380
552.171	454
552.223	568
552.275	1016
552.327	2186
552.38	4200
552.432	7412
552.484	11958
552.536	16428
552.588	12358
552.641	6200
552.693	2286
552.745	992
552.797	612
552.849	458
552.901	422
552.954	368
553.006	320
553.058	320
553.11	278
553.162	272
553.215	276
553.267	256
553.319	276
553.371	242
553.423	246
553.475	232
553.528	246
553.58	242
553.632	248
553.684	232
553.736	238
553.788	232
553.841	236
553.893	226
553.945	228
553.997	240
554.049	228
554.102	216
554.154	234
554.206	226
554.258	206
554.31	236
554.362	228
554.414	222
554.467	242
554.519	232
554.571	228
554.623	238
554.675	222
554.727	238
554.78	230
554.832	236
554.884	232
554.936	232
554.988	238
555.04	242
555.093	240
555.145	226
555.197	248
555.249	246
555.301	258
555.353	242
555.406	252
555.458	242
555.51	260
555.562	252
555.614	232
555.666	262
555.719	236
555.771	248
555.823	234
555.875	268
555.927	254
555.979	272
556.031	258
556.084	252
556.136	256
556.188	282
556.24	262
556.292	260
556.344	256
556.396	272
556.449	266
556.501	286
556.553	264
556.605	260
556.657	278
556.709	290
556.762	280
556.814	280
556.866	276
556.918	268
556.97	298
557.022	270
557.074	282
557.127	290
557.179	288
557.231	302
557.283	292
557.335	280
557.387	292
557.439	286
557.492	308
557.544	298
557.596	296
557.648	288
557.7	276
557.752	286
557.804	298
557.856	296
557.909	292
557.961	294
558.013	302
558.065	306
558.117	290
558.169	306
558.221	330
558.273	288
558.326	304
558.378	310
558.43	290
558.482	296
558.534	316
558.586	326
558.638	320
558.691	312
558.743	290
558.795	310
558.847	308
558.899	308
558.951	310
559.003	312
559.055	322
559.108	308
559.16	304
559.212	326
559.264	314
559.316	334
559.368	304
559.42	326
559.472	308
559.525	326
559.577	322
559.629	324
559.681	328
559.733	332
559.785	320
559.837	340
559.889	334
559.941	358
559.994	362
560.046	352
560.098	354
560.15	342
560.202	342
560.254	350
560.306	332
560.358	352
560.41	340
560.463	348
560.515	344
560.567	356
560.619	332
560.671	368
560.723	362
560.775	356
560.827	360
560.879	372
560.932	354
560.984	368
561.036	352
561.088	382
561.14	386
561.192	386
561.244	364
561.296	370
561.348	360
561.4	402
561.453	376
561.505	366
561.557	394
561.609	380
561.661	398
561.713	420
561.765	388
561.817	388
561.869	400
561.921	378
561.974	390
562.026	396
562.078	394
562.13	418
562.182	412
562.234	408
562.286	408
562.338	374
562.39	422
562.442	404
562.494	410
562.547	416
562.599	422
562.651	432
562.703	414
562.755	416
562.807	436
562.859	426
562.911	410
562.963	430
563.015	426
563.067	456
563.12	436
563.172	440
563.224	436
563.276	424
563.328	418
563.38	446
563.432	438
563.484	446
563.536	456
563.588	434
563.64	444
563.692	448
563.744	464
563.797	460
563.849	458
563.901	456
563.953	458
564.005	482
564.057	464
564.109	470
564.161	468
564.213	476
564.265	482
564.317	470
564.369	472
564.421	480
564.474	450
564.526	486
564.578	476
564.63	488
564.682	476
564.734	478
564.786	492
564.838	500
564.89	480
564.942	472
564.994	466
565.046	500
565.098	524
565.15	518
565.202	488
565.255	520
565.307	512
565.359	478
565.411	516
565.463	514
565.515	518
565.567	524
565.619	518
565.671	548
565.723	512
565.775	542
565.827	516
565.879	522
565.931	534
565.983	506
566.035	538
566.087	526
566.139	526
566.192	538
566.244	520
566.296	542
566.348	556
566.4	580
566.452	562
566.504	538
566.556	558
566.608	564
566.66	546
566.712	560
566.764	576
566.816	566
566.868	570
566.92	558
566.972	572
567.024	574
567.076	590
567.128	580
567.18	600
567.232	584
567.285	566
567.337	578
567.389	564
567.441	584
567.493	594
567.545	612
567.597	588
567.649	606
567.701	588
567.753	626
567.805	614
567.857	586
567.909	636
567.961	620
568.013	626
568.065	610
568.117	622.03
568.169	608.156
568.221	643.628
568.273	611.408
568.325	615.517
568.377	600.306
568.429	611.285
568.481	610.122
568.533	622.464
568.585	628.281
568.637	613.783
568.69	654.956
568.742	657.867
568.794	681.941
568.846	645.266
568.898	636.48
568.95	658.241
569.002	681.714
569.054	654.413
569.106	656.859
569.158	686.136
569.21	665.925
569.262	678.529
569.314	698.413
569.366	693.747
569.418	696.051
569.47	687.208
569.522	714.057
569.574	719.57
569.626	714.216
569.678	714.07
569.73	701.59
569.782	731.736
569.834	738.535
569.886	738.152
569.938	704.548
569.99	719.281
570.042	746.913
570.094	756.596
570.146	749.835
570.198	763.116
570.25	773.043
570.302	777.98
570.354	777.841
570.406	766.26
570.458	762.67
570.51	775.466
570.562	778.278
570.614	820.317
570.666	813.336
570.718	803.726
570.77	812.887
570.822	797.301
570.874	830.25
570.926	847.562
570.978	830.747
571.03	836.775
571.082	851.055
571.134	842.955
571.186	858.6
571.238	863.041
571.29	890.768
571.342	889.938
571.394	902.059
571.446	923.41
571.498	920.999
571.55	911.722
571.602	925.903
571.654	938.916
571.706	948.048
571.758	969.64
571.81	971.286
571.862	957.626
571.914	974.69
571.966	976.337
572.018	1002.21
572.07	1023.78
572.122	1033.59
572.174	1001.09
572.226	1046.75
572.278	1076.59
572.33	1089.5
572.382	1081.16
572.434	1095.07
572.486	1119.3
572.538	1121.54
572.59	1122.3
572.642	1156.5
572.694	1161.81
572.746	1179.97
572.798	1187.71
572.85	1192.41
572.902	1204.34
572.954	1204.39
573.006	1239.7
573.058	1248.24
573.11	1291.34
573.162	1301.94
573.214	1314.73
573.266	1318.91
573.312	1324
573.364	1364
573.416	1384
573.469	1380
573.521	1440
573.573	1454
573.625	1446
573.677	1468
573.73	1490
573.782	1564
573.834	1558
573.886	1570
573.938	1640
573.991	1610
574.043	1672
574.095	1730
574.147	1678
574.199	1714
574.252	1790
574.304	1858
574.356	1870
574.408	1868
574.46	1868
574.513	1934
574.565	1978
574.617	1946
574.669	2038
574.721	2024
574.774	2022
574.826	2116
574.878	2096
574.93	2136
574.982	2150
575.035	2220
575.087	2272
575.139	2250
575.191	2290
575.243	2242
575.296	2280
575.348	2304
575.4	2292
575.452	2348
575.504	2300
575.556	2340
575.609	2432
575.661	2362
575.713	2328
575.765	2372
575.817	2364
575.87	2348
575.922	2376
575.974	2370
576.026	2314
576.078	2378
576.131	2318
576.183	2204
576.235	2302
576.287	2230
576.339	2280
576.391	2214
576.444	2184
576.496	2214
576.548	2138
576.6	2172
576.652	2112
576.705	2094
576.757	2106
576.809	2048
576.861	2026
576.913	2042
576.965	2012
577.018	1974
577.07	1908
577.122	1930
577.174	1904
577.226	1876
577.279	1852
577.331	1822
577.383	1842
577.435	1858
577.487	1820
577.539	1782
577.592	1786
577.644	1720
577.696	1726
577.748	1698
577.8	1742
577.852	1690
577.905	1680
577.957	1690
578.009	1658
578.061	1608
578.113	1646
578.165	1626
578.218	1614
578.27	1602
578.322	1584
578.374	1608
578.426	1544
578.478	1594
578.531	1586
578.583	1546
578.635	1582
578.687	1494
578.739	1596
578.791	1540
578.844	1498
578.896	1508
578.948	1540
579	1518
579.052	1488
579.104	1488
579.157	1520
579.209	1502
579.261	1522
579.313	1474
579.365	1480
579.417	1520
579.47	1524
579.522	1492
579.574	1516
579.626	1520
579.678	1510
579.73	1472
579.782	1484
579.835	1494
579.887	1458
579.939	1524
579.991	1488
580.043	1460
580.095	1502
580.148	1488
580.2	1478
580.252	1514
580.304	1476
580.356	1492
580.408	1492
580.46	1502
580.513	1492
580.565	1512
580.617	1490
580.669	1502
580.721	1490
580.773	1516
580.826	1488
580.878	1550
580.93	1524
580.982	1498
581.034	1526
581.086	1502
581.138	1530
581.191	1540
581.243	1540
581.295	1512
581.347	1560
581.399	1584
581.451	1524
581.503	1552
581.556	1550
581.608	1530
581.66	1516
581.712	1566
581.764	1542
581.816	1554
581.868	1562
581.92	1590
581.973	1566
582.025	1596
582.077	1586
582.129	1618
582.181	1584
582.233	1610
582.285	1588
582.338	1622
582.39	1586
582.442	1608
582.494	1584
582.546	1612
582.598	1622
582.65	1636
582.703	1618
582.755	1642
582.807	1642
582.859	1612
582.911	1654
582.963	1604
583.015	1652
583.067	1644
583.12	1672
583.172	1632
583.224	1670
583.276	1674
583.328	1700
583.38	1690
583.432	1654
583.484	1670
583.537	1702
583.589	1708
583.641	1704
583.693	1690
583.745	1722
583.797	1710
583.849	1712
583.901	1698
583.953	1714
584.006	1764
584.058	1734
584.11	1746
584.162	1772
584.214	1738
584.266	1784
584.318	1788
584.37	1760
584.423	1774
584.475	1790
584.527	1780
584.579	1796
584.631	1796
584.683	1848
584.735	1834
584.787	1834
584.839	1804
584.892	1838
584.944	1856
584.996	1850
585.048	1850
585.1	1848
585.152	1896
585.204	1880
585.256	1880
585.308	1886
585.361	1928
585.413	1882
585.465	1894
585.517	1924
585.569	1876
585.621	1900
585.673	1968
585.725	1928
585.777	1944
585.83	1972
585.882	1970
585.934	1962
585.986	1980
586.038	1992
586.09	1968
586.142	2020
586.194	1960
586.246	1956
586.298	2018
586.351	1970
586.403	1990
586.455	1986
586.507	1990
586.559	2010
586.611	2006
586.663	2004
586.715	2034
586.767	2022
586.819	2028
586.872	2028
586.924	2016
586.976	2048
587.028	2018
587.08	2034
587.132	2040
587.184	2046
587.236	2058
587.288	2064
587.34	2072
587.392	2024
587.445	2066
587.497	2070
587.549	2068
587.601	2072
587.653	2066
587.705	2070
587.757	2056
587.809	2026
587.861	2026
587.913	2102
587.965	2052
588.018	2046
588.07	2034
588.122	2062
588.174	2058
588.226	2050
588.278	2136
588.33	2124
588.382	2126
588.434	2128
588.486	2106
588.538	2112
588.59	2116
588.642	2106
588.695	2046
588.747	2094
588.799	2080
588.851	2058
588.903	2090
588.955	2136
589.007	2098
589.059	2124
589.111	2144
589.163	2164
589.215	2096
589.267	2106
589.319	2120
589.372	2176
589.424	2114
589.476	2136
589.528	2130
589.58	2128
589.632	2100
589.684	2120
589.736	2150
589.788	2126
589.84	2120
589.892	2120
589.944	2120
589.996	2110
590.048	2122
590.101	2156
590.153	2184
590.205	2108
590.257	2142
590.309	2170
590.361	2064
590.413	2128
590.465	2130
590.517	2110
590.569	2124
590.621	2138
590.673	2150
590.725	2088
590.777	2128
590.829	2092
590.881	2132
590.933	2144
590.986	2154
591.038	2144
591.09	2112
591.142	2144
591.194	2152
591.246	2102
591.298	2164
591.35	2158
591.402	2100
591.454	2154
591.506	2108
591.558	2092
591.61	2124
591.662	2104
591.714	2076
591.766	2066
591.818	2126
591.87	2134
591.923	2124
591.975	2134
592.027	2114
592.079	2164
592.131	2136
592.183	2098
592.235	2160
592.287	2100
592.339	2064
592.391	2096
592.443	2088
592.495	2096
592.547	2098
592.599	2102
592.651	2102
592.703	2140
592.755	2116
592.807	2100
592.859	2068
592.911	2108
592.963	2120
593.015	2086
593.068	2114
593.12	2114
593.172	2116
593.224	2118
593.276	2108
593.328	2144
593.38	2112
593.432	2126
593.484	2132
593.536	2094
593.588	2070
593.64	2156
593.692	2098
593.744	2140
593.796	2102
593.848	2114
593.9	2136
593.952	2144
594.004	2154
594.056	2166
594.108	2186
594.16	2144
594.212	2180
594.264	2140
594.316	2188
594.368	2158
594.42	2138
594.472	2196
594.524	2202
594.576	2220
594.628	2158
594.68	2180
594.732	2190
594.784	2226
594.837	2200
594.889	2234
594.941	2186
594.993	2192
595.045	2190
595.097	2218
595.149	2200
595.201	2188
595.253	2270
595.305	2178
595.357	2260
595.409	2212
595.461	2228
595.513	2286
595.565	2272
595.617	2218
595.669	2260
595.721	2276
595.773	2296
595.825	2288
595.877	2340
595.929	2328
595.981	2296
596.033	2306
596.085	2352
596.137	2284
596.189	2374
596.241	2360
596.293	2338
596.345	2318
596.397	2302
596.449	2350
596.501	2338
596.553	2388
596.605	2326
596.657	2348
596.709	2366
596.761	2362
596.813	2368
596.865	2370
596.917	2418
596.969	2400
597.021	2382
597.073	2376
597.125	2374
597.177	2416
597.229	2420
597.281	2446
597.333	2382
597.385	2386
597.437	2412
597.489	2406
597.541	2404
597.593	2396
597.645	2392
597.697	2414
597.749	2394
597.801	2398
597.853	2374
597.905	2420
597.957	2458
598.009	2446
598.061	2432
598.113	2432
598.165	2468
598.217	2476
598.269	2426
598.321	2446
598.373	2434
598.425	2480
598.477	2442
598.529	2436
598.581	2406
598.633	2462
598.685	2422
598.737	2438
598.789	2444
598.841	2424
598.893	2408
598.945	2500
598.997	2426
599.049	2460
599.101	2440
599.153	2480
599.205	2440
599.257	2462
599.309	2406
599.361	2484
599.413	2434
599.465	2472
599.517	2488
599.569	2446
599.62	2502
599.672	2506
599.724	2484
599.776	2504
599.828	2532
599.88	2490
599.932	2488
599.984	2474
600.036	2482
600.088	2466
600.14	2500
600.192	2462
600.244	2500
600.296	2454
600.348	2468
600.4	2430
600.452	2484
600.504	2530
600.556	2444
600.608	2524
600.66	2446
600.712	2444
600.764	2488
600.816	2452
600.868	2490
600.92	2496
600.972	2468
601.024	2510
601.076	2532
601.128	2464
601.18	2560
601.232	2432
601.284	2512
601.335	2462
601.387	2430
601.439	2528
601.491	2488
601.543	2520
601.595	2492
601.647	2496
601.699	2456
601.751	2476
601.803	2524
601.855	2496
601.907	2536
601.959	2526
602.011	2532
602.063	2510
602.115	2570
602.167	2520
602.219	2534
602.271	2506
602.323	2552
602.375	2540
602.427	2550
602.478	2526
602.53	2470
602.582	2580
602.634	2550
602.686	2548
602.738	2508
602.79	2492
602.842	2556
602.894	2516
602.946	2558
602.998	2556
603.05	2592
603.102	2544
603.154	2528
603.206	2592
603.258	2564
603.31	2572
603.362	2590
603.413	2534
603.465	2592
603.517	2574
603.569	2602
603.621	2540
603.673	2622
603.725	2594
603.777	2572
603.829	2568
603.881	2600
603.933	2558
603.985	2546
604.037	2582
604.089	2584
604.141	2598
604.193	2606
604.244	2610
604.296	2620
604.348	2596
604.4	2574
604.452	2656
604.504	2602
604.556	2610
604.608	2670
604.66	2576
604.712	2636
604.764	2604
604.816	2608
604.868	2594
604.92	2632
604.971	2566
605.023	2624
605.075	2642
605.127	2638
605.179	2628
605.231	2626
605.283	2562
605.335	2636
605.387	2522
605.439	2628
605.491	2600
605.543	2620
605.594	2626
605.646	2596
605.698	2650
605.75	2604
605.802	2546
605.854	2652
605.906	2610
605.958	2630
606.01	2634
606.062	2628
606.114	2612
606.166	2636
606.217	2622
606.269	2592
606.321	2616
606.373	2650
606.425	2578
606.477	2634
606.529	2612
606.581	2616
606.633	2580
606.685	2628
606.737	2648
606.789	2598
606.84	2628
606.892	2646
606.944	2626
606.996	2572
607.048	2666
607.1	2664
607.152	2596
607.204	2620
607.256	2618
607.308	2630
607.359	2674
607.411	2624
607.463	2678
607.515	2630
607.567	2660
607.619	2654
607.671	2614
607.723	2590
607.775	2652
607.827	2724
607.878	2676
607.93	2678
607.982	2640
608.034	2678
608.086	2706
608.138	2626
608.19	2672
608.242	2674
608.294	2656
608.345	2664
608.397	2674
608.449	2696
608.501	2676
608.553	2668
608.605	2646
608.657	2740
608.709	2754
608.761	2742
608.812	2756
608.864	2748
608.916	2676
608.968	2744
609.02	2786
609.072	2724
609.124	2786
609.176	2758
609.228	2786
609.279	2770
609.331	2726
609.383	2726
609.435	2694
609.487	2740
609.539	2760
609.591	2760
609.643	2762
609.694	2698
609.746	2796
609.798	2698
609.85	2808
609.902	2752
609.954	2850
610.006	2774
610.058	2802
610.109	2750
610.161	2780
610.213	2808
610.265	2806
610.317	2756
610.369	2786
610.421	2796
610.473	2794
610.524	2814
610.576	2820
610.628	2806
610.68	2842
610.732	2800
610.784	2812
610.836	2826
610.887	2862
610.939	2840
610.991	2840
611.043	2850
611.095	2820
611.147	2790
611.199	2846
611.25	2862
611.302	2860
611.354	2834
611.406	2868
611.458	2834
611.51	2810
611.562	2882
611.614	2872
611.665	2838
611.717	2882
611.769	2846
611.821	2898
611.873	2934
611.925	2912
611.977	2874
612.028	2904
612.08	2898
612.132	2946
612.184	2934
612.236	2892
612.288	2892
612.339	2886
612.391	2892
612.443	2896
612.495	2902
612.547	2944
612.599	2988
612.651	2942
612.702	2850
612.754	2964
612.806	2976
612.858	2984
612.91	2968
612.962	2950
613.013	2966
613.065	2962
613.117	2930
613.169	3012
613.221	3034
613.273	2974
613.325	3012
613.376	2962
613.428	3040
613.48	3006
613.532	3050
613.584	3008
613.635	3028
613.687	3030
613.739	3028
613.791	3042
613.843	3036
613.895	3028
613.947	3028
613.998	3056
614.05	3086
614.102	3044
614.154	3090
614.206	3060
614.258	3084
614.309	3070
614.361	3086
614.413	3060
614.465	3118
614.517	3118
614.568	3108
614.62	3202
614.672	3170
614.724	3070
614.776	3082
614.828	3070
614.879	3096
614.931	3160
614.983	3152
615.035	3156
615.087	3170
615.139	3204
615.19	3174
615.242	3188
615.294	3208
615.346	3128
615.398	3216
615.449	3168
615.501	3158
615.553	3194
615.605	3208
615.657	3192
615.709	3214
615.76	3208
615.812	3206
615.864	3264
615.916	3222
615.968	3184
616.019	3267.12
616.071	3222.27
616.123	3222.67
616.175	3237.8
616.227	3215.4
616.278	3174.22
616.33	3211.31
616.382	3250.41
616.434	3176.62
616.486	3274.99
616.537	3285.64
616.589	3281.61
616.641	3270.35
616.693	3303.59
616.745	3291.29
616.797	3305.85
616.848	3308.69
616.9	3320.38
616.952	3304.26
617.004	3293.58
617.056	3361.65
617.107	3333.48
617.159	3352.37
617.211	3285.79
617.263	3279.1
617.315	3351.85
617.366	3345.49
617.418	3334.77
617.47	3308.95
617.522	3368.67
617.573	3345.47
617.625	3363.32
617.677	3395.22
617.729	3350.85
617.781	3323.46
617.832	3391.79
617.884	3400.43
617.936	3401.48
617.988	3376.5
618.04	3365.56
618.091	3394.08
618.143	3394.15
618.195	3412.02
618.247	3441.76
618.299	3410.36
618.35	3429
618.402	3393.83
618.454	3395.04
618.506	3410.61
618.557	3457.32
618.609	3440.2
618.661	3447.14
618.713	3432.02
618.765	3421.57
618.816	3497.92
618.868	3457.07
618.92	3443.91
618.972	3467.88
619.023	3467.7
619.075	3429.54
619.127	3444.99
619.179	3457.63
619.231	3492.38
619.282	3478.35
619.334	3484.9
619.386	3516.71
619.438	3464.72
619.49	3501.34
619.541	3477.77
619.593	3481.08
619.645	3475.87
619.697	3504
619.748	3517.16
619.8	3487.31
619.852	3515.64
619.904	3497.81
619.955	3522.73
620.007	3518.57
620.059	3528.57
620.111	3515.73
620.162	3524.77
620.214	3530.79
620.266	3532.58
620.318	3519.06
620.37	3545.55
620.421	3526.07
620.473	3495.27
620.525	3525.88
620.577	3536.13
620.628	3518.72
620.68	3530.45
620.732	3568.23
620.784	3547.91
620.835	3524.87
620.887	3533.52
620.939	3515.33
620.991	3519.08
621.042	3535.69
621.094	3520.82
621.146	3551.02
621.198	3568.85
621.249	3569.59
621.269	3572
621.321	3590
621.373	3586
621.425	3508
621.477	3590
621.529	3544
621.581	3500
621.633	3582
621.685	3618
621.737	3586
621.789	3520
621.841	3556
621.893	3512
621.945	3542
621.997	3568
622.049	3606
622.101	3498
622.153	3598
622.205	3632
622.257	3650
622.309	3542
622.361	3612
622.413	3634
622.465	3582
622.517	3586
622.569	3568
622.621	3624
622.673	3598
622.725	3572
622.776	3608
622.828	3604
622.88	3582
622.932	3630
622.984	3650
623.036	3612
623.088	3612
623.14	3624
623.192	3576
623.244	3626
623.296	3644
623.348	3604
623.4	3642
623.452	3566
623.504	3644
623.556	3660
623.608	3660
623.66	3634
623.712	3604
623.764	3588
623.816	3688
623.868	3656
623.92	3620
623.972	3664
624.024	3662
624.076	3628
624.128	3636
624.18	3698
624.232	3670
624.284	3666
624.336	3684
624.388	3662
624.44	3730
624.492	3672
624.544	3708
624.596	3688
624.648	3652
624.699	3722
624.751	3664
624.803	3704
624.855	3660
624.907	3704
624.959	3708
625.011	3682
625.063	3728
625.115	3690
625.167	3718
625.219	3690
625.271	3752
625.323	3704
625.375	3710
625.427	3802
625.479	3778
625.531	3726
625.583	3730
625.635	3770
625.687	3730
625.739	3784
625.791	3710
625.843	3764
625.895	3844
625.946	3850
625.998	3748
626.05	3766
626.102	3774
626.154	3786
626.206	3762
626.258	3774
626.31	3792
626.362	3754
626.414	3788
626.466	3854
626.518	3840
626.57	3862
626.622	3844
626.674	3820
626.726	3814
626.778	3858
626.83	3836
626.882	3862
626.934	3918
626.985	3796
627.037	3892
627.089	3806
627.141	3858
627.193	3866
627.245	3894
627.297	3878
627.349	3826
627.401	3938
627.453	3826
627.505	3910
627.557	3924
627.609	3912
627.661	3880
627.713	3948
627.765	3920
627.817	3886
627.868	3910
627.92	3940
627.972	3876
628.024	3934
628.076	3888
628.128	3962
628.18	3964
628.232	3952
628.284	3918
628.336	3932
628.388	3962
628.44	3944
628.492	3964
628.544	3934
628.596	4002
628.647	3948
628.699	3998
628.751	4010
628.803	3996
628.855	3956
628.907	3990
628.959	4030
629.011	3998
629.063	4056
629.115	4078
629.167	4012
629.219	3970
629.271	4098
629.322	3984
629.374	4052
629.426	4004
629.478	4000
629.53	4020
629.582	4064
629.634	4016
629.686	4038
629.738	4020
629.79	4112
629.842	4066
629.894	4066
629.945	4070
629.997	4096
630.049	4124
630.101	4154
630.153	4164
630.205	4056
630.257	4118
630.309	4106
630.361	4174
630.413	4182
630.465	4120
630.517	4124
630.568	4132
630.62	4066
630.672	4158
630.724	4182
630.776	4132
630.828	4260
630.88	4196
630.932	4164
630.984	4146
631.036	4202
631.088	4182
631.14	4202
631.191	4154
631.243	4184
631.295	4220
631.347	4234
631.399	4262
631.451	4266
631.503	4198
631.555	4208
631.607	4228
631.659	4226
631.71	4284
631.762	4298
631.814	4300
631.866	4318
631.918	4310
631.97	4282
632.022	4256
632.074	4298
632.126	4332
632.178	4300
632.229	4338
632.281	4262
632.333	4356
632.385	4338
632.437	4330
632.489	4416
632.541	4372
632.593	4410
632.645	4382
632.696	4352
632.748	4426
632.8	4350
632.852	4366
632.904	4406
632.956	4440
633.008	4414
633.06	4494
633.112	4456
633.164	4422
633.215	4470
633.267	4490
633.319	4498
633.371	4526
633.423	4472
633.475	4560
633.527	4534
633.579	4462
633.63	4496
633.682	4520
633.734	4530
633.786	4600
633.838	4570
633.89	4506
633.942	4520
633.994	4558
634.046	4612
634.097	4628
634.149	4648
634.201	4594
634.253	4602
634.305	4686
634.357	4680
634.409	4652
634.461	4728
634.512	4734
634.564	4678
634.616	4636
634.668	4720
634.72	4680
634.772	4750
634.824	4776
634.876	4782
634.927	4812
634.979	4836
635.031	4794
635.083	4882
635.135	4802
635.187	4916
635.239	4862
635.291	4898
635.342	4906
635.394	4992
635.446	4932
635.498	5010
635.55	4992
635.602	4998
635.654	5070
635.705	5140
635.757	5122
635.809	5152
635.861	5178
635.913	5172
635.965	5294
636.017	5242
636.068	5296
636.12	5312
636.172	5358
636.224	5374
636.276	5406
636.328	5424
636.38	5576
636.431	5584
636.483	5612
636.535	5550
636.587	5726
636.639	5736
636.691	5836
636.743	5800
636.794	5874
636.846	5956
636.898	5958
636.95	6006
637.002	6062
637.054	6116
637.106	6200
637.157	6236
637.209	6232
637.261	6266
637.313	6356
637.365	6402
637.417	6466
637.469	6568
637.52	6518
637.572	6518
637.624	6560
637.676	6614
637.728	6616
637.78	6626
637.831	6640
637.883	6658
637.935	6626
637.987	6600
638.039	6622
638.091	6520
638.143	6636
638.194	6592
638.246	6710
638.298	6638
638.35	6586
638.402	6494
638.454	6466
638.505	6504
638.557	6374
638.609	6434
638.661	6370
638.713	6378
638.765	6388
638.816	6332
638.868	6276
638.92	6240
638.972	6286
639.024	6250
639.076	6170
639.127	6170
639.179	6180
639.231	6124
639.283	6098
639.335	6008
639.387	6038
639.438	5930
639.49	5976
639.542	5946
639.594	5948
639.646	5934
639.698	5840
639.749	5842
639.801	5836
639.853	5804
639.905	5862
639.957	5840
640.008	5762
640.06	5736
640.112	5730
640.164	5770
640.216	5696
640.268	5794
640.319	5770
640.371	5724
640.423	5662
640.475	5672
640.527	5610
640.578	5646
640.63	5616
640.682	5694
640.734	5712
640.786	5666
640.838	5616
640.889	5656
640.941	5630
640.993	5618
641.045	5616
641.097	5654
641.148	5602
641.2	5500
641.252	5536
641.304	5562
641.356	5648
641.408	5592
641.459	5548
641.511	5614
641.563	5664
641.615	5594
641.667	5618
641.718	5550
641.77	5614
641.822	5508
641.874	5586
641.926	5606
641.977	5612
642.029	5644
642.081	5556
642.133	5568
642.185	5622
642.236	5644
642.288	5548
642.34	5614
642.392	5516
642.444	5544
642.495	5608
642.547	5602
642.599	5522
642.651	5608
642.703	5576
642.754	5604
642.806	5642
642.858	5688
642.91	5588
642.962	5650
643.013	5612
643.065	5626
643.117	5630
643.169	5650
643.221	5548
643.272	5698
643.324	5718
643.376	5556
643.428	5630
643.479	5610
643.531	5694
643.583	5706
643.635	5640
643.687	5628
643.738	5762
643.79	5702
643.842	5650
643.894	5670
643.946	5664
643.997	5618
644.049	5720
644.101	5688
644.153	5668
644.205	5656
644.256	5702
644.308	5642
644.36	5708
644.412	5644
644.463	5648
644.515	5812
644.567	5694
644.619	5742
644.671	5722
644.722	5730
644.774	5760
644.826	5746
644.878	5800
644.929	5740
644.981	5804
645.033	5730
645.085	5820
645.136	5782
645.188	5740
645.24	5764
645.292	5876
645.344	5772
645.395	5884
645.447	5782
645.499	5806
645.551	5806
645.602	5750
645.654	5822
645.706	5876
645.758	5836
645.81	5822
645.861	5842
645.913	5770
645.965	5796
646.017	5826
646.068	5818
646.12	5900
646.172	5888
646.224	5900
646.275	5806
646.327	5822
646.379	5842
646.431	5882
646.482	5814
646.534	5878
646.586	5870
646.638	5872
646.689	5928
646.741	5908
646.793	5926
646.845	5876
646.896	5914
646.948	5950
647	5948
647.052	5932
647.104	5942
647.155	5954
647.207	5944
647.259	5932
647.31	5932
647.362	6024
647.414	5968
647.466	5918
647.518	5996
647.569	6026
647.621	5922
647.673	5976
647.724	6052
647.776	6012
647.828	5954
647.88	6014
647.931	6052
647.983	6048
648.035	6084
648.087	6100
648.138	6020
648.19	6032
648.242	6064
648.294	6056
648.345	6050
648.397	6080
648.449	6136
648.501	6056
648.552	6138
648.604	6110
648.656	6086
648.708	6070
648.759	6154
648.811	6100
648.863	6188
648.915	6146
648.966	6120
649.018	6092
649.07	6180
649.121	6172
649.173	6208
649.225	6140
649.277	6160
649.328	6156
649.38	6214
649.432	6236
649.484	6266
649.535	6192
649.587	6248
649.639	6242
649.69	6210
649.742	6252
649.794	6256
649.846	6254
649.897	6366
649.949	6238
650.001	6344
650.053	6340
650.104	6326
650.156	6314
650.208	6330
650.259	6288
650.311	6354
650.363	6388
650.415	6280
650.466	6302
650.518	6402
650.57	6402
650.621	6368
650.673	6356
650.725	6346
650.777	6388
650.828	6432
650.88	6420
650.932	6428
650.984	6380
651.035	6460
651.087	6442
651.139	6418
651.19	6482
651.242	6488
651.294	6446
651.345	6546
651.397	6508
651.449	6458
651.501	6500
651.552	6562
651.604	6484
651.656	6544
651.707	6562
651.759	6456
651.811	6588
651.863	6618
651.914	6632
651.966	6638
652.018	6492
652.069	6576
652.121	6646
652.173	6628
652.224	6664
652.276	6704
652.328	6720
652.38	6550
652.431	6634
652.483	6588
652.535	6696
652.586	6636
652.638	6680
652.69	6708
652.741	6784
652.793	6656
652.845	6666
652.897	6668
652.948	6742
653	6782
653.052	6838
653.103	6784
653.155	6848
653.207	6808
653.258	6732
653.31	6782
653.362	6814
653.413	6892
653.465	6906
653.517	6856
653.568	6936
653.62	6838
653.672	6824
653.724	6912
653.775	6942
653.827	6924
653.879	6936
653.93	6988
653.982	7020
654.034	6986
654.085	7040
654.137	7008
654.189	7078
654.24	7022
654.292	7096
654.344	7040
654.395	7002
654.447	7038
654.499	7000
654.55	7074
654.602	7164
654.654	7130
654.705	7108
654.757	7086
654.809	7104
654.86	7106
654.912	7164
654.964	7224
655.016	7186
655.067	7202
655.119	7230
655.17	7302
655.222	7244
655.274	7316
655.326	7260
655.377	7284
655.429	7278
655.481	7296
655.532	7366
655.584	7340
655.635	7336
655.687	7376
655.739	7446
655.79	7458
655.842	7484
655.894	7470
655.945	7450
655.997	7492
656.049	7518
656.1	7454
656.152	7572
656.204	7510
656.255	7510
656.307	7456
656.359	7572
656.41	7592
656.462	7580
656.514	7584
656.565	7760
656.617	7596
656.669	7586
656.72	7672
656.772	7690
656.824	7638
656.875	7718
656.927	7674
656.979	7716
657.03	7782
657.082	7764
657.134	7720
657.185	7702
657.237	7754
657.288	7828
657.34	7836
657.392	7768
657.443	7848
657.495	7916
657.547	7748
657.598	7828
657.65	7862
657.702	7958
657.753	7894
657.805	7874
657.857	7972
657.908	7900
657.96	7994
658.011	8008
658.063	7876
658.115	7898
658.166	7978
658.218	7960
658.27	7990
658.321	8072
658.373	7984
658.425	7956
658.476	8068
658.528	7974
658.579	7980
658.631	7976
658.683	8030
658.734	8056
658.786	8022
658.838	7982
658.889	8054
658.941	8086
658.992	8090
659.044	8078
659.096	8086
659.147	8052
659.199	8100
659.251	8090
659.302	7950
659.354	8070
659.406	8106
659.457	8052
659.509	8158
659.56	8074
659.612	8104
659.664	8082
659.715	8108
659.767	8082
659.818	8152
659.87	8006
659.922	8070
659.973	8146
660.025	8176
660.077	8128
660.128	8180
660.18	8032
660.231	8138
660.283	8072
660.335	8086
660.386	8142
660.438	8082
660.49	8100
660.541	8118
660.593	8074
660.644	8184
660.696	8112
660.748	8068
660.799	8092
660.851	8036
660.902	8096
660.954	8090
661.006	8028
661.057	8124
661.109	8150
661.16	8110
661.212	8102
661.264	8126
661.315	8056
661.367	8004
661.418	8042
661.47	8116
661.522	8112
661.573	8038
661.625	8080
661.676	8108
661.728	8126
661.78	8052
661.831	8120
661.883	8154
661.934	8094
661.986	7998
662.038	7996
662.089	8130
662.141	8084
662.192	8066
662.244	8090
662.296	8188
662.347	8186
662.399	8184
662.45	8122
662.502	8082
662.554	8138
662.605	8178
662.657	8026
662.708	8100
662.76	8164
662.811	7940
662.863	8114
662.915	8106
662.966	8084
663.018	8016
663.069	8096
663.121	8066
663.173	8072
663.224	8108
663.276	8070
663.327	8130
663.379	8196
663.43	8146
663.482	8154
663.534	8104
663.585	8072
663.637	8050
663.688	8142
663.74	8142.12
663.792	8169.76
663.843	8129.11
663.895	8118.07
663.946	8164.34
663.998	8100.59
664.049	8038.01
664.101	8163.83
664.153	8170.46
664.204	8121.54
664.256	8143.6
664.307	8040.54
664.359	8107.27
664.41	8134.71
664.462	8093.36
664.513	8097.58
664.565	8160.36
664.617	8151.94
664.668	8109.04
664.72	8077.15
664.771	8069.61
664.823	8137.85
664.874	8156.69
664.926	8129.63
664.978	8091.87
665.029	8204.29
665.081	8124.48
665.132	8104.57
665.184	8124.55
665.235	8112.28
665.287	8097.33
665.339	8140.46
665.39	8081.68
665.442	8127.55
665.493	8157.58
665.545	8152.93
665.596	8126.2
665.648	8192.47
665.699	8173.05
665.751	8189.87
665.802	8143.8
665.854	8139.53
665.906	8179.59
665.957	8144.27
666.009	8171.89
666.06	8139.79
666.112	8160.61
666.163	8162.61
666.215	8174.22
666.266	8119.33
666.318	8173.54
666.37	8123.23
666.421	8075.16
666.473	8076.63
666.524	8116.95
666.576	8158.65
666.627	8115.98
666.679	8135.54
666.73	8130.58
666.782	8120.19
666.833	8112.19
666.885	8131.52
666.937	8133.79
666.988	8198.1
667.04	8167.54
667.091	8101.95
667.143	8182.7
667.194	8143.37
667.246	8120.98
667.297	8160.84
667.349	8152.41
667.4	8191.23
667.452	8187.6
667.503	8145.06
667.555	8143.73
667.607	8138.64
667.658	8160.48
667.71	8090.52
667.761	8124.1
667.813	8135.36
667.864	8178.97
667.916	8169.78
667.967	8135.41
668.019	8107.01
668.07	8131.74
668.122	8140.62
668.173	8153.64
668.225	8124.26
668.276	8185.63
668.328	8098.66
668.379	8163.17
668.431	8242.49
668.482	8223.12
668.534	8178.72
668.586	8159.14
668.637	8113.61
668.689	8134.64
668.74	8133.76
668.792	8156
668.843	8164.61
668.895	8129.14
668.935	8204
668.987	8164
669.038	8190
669.09	8142
669.142	8246
669.194	8146
669.245	8212
669.297	8172
669.349	8192
669.401	8118
669.453	8192
669.504	8142
669.556	8158
669.608	8196
669.66	8170
669.711	8134
669.763	8158
669.815	8200
669.867	8154
669.918	8234
669.97	8120
670.022	8080
670.074	8220
670.125	8208
670.177	8128
670.229	8092
670.281	8066
670.332	8134
670.384	8180
670.436	8162
670.488	8180
670.539	8120
670.591	8162
670.643	8152
670.695	8086
670.747	8108
670.798	8186
670.85	8008
670.902	8150
670.953	8218
671.005	8216
671.057	8088
671.109	8184
671.161	8124
671.212	8142
671.264	8200
671.316	8230
671.367	8198
671.419	8186
671.471	8162
671.523	8104
671.575	8186
671.626	8170
671.678	8126
671.73	8046
671.781	8202
671.833	8184
671.885	8166
671.937	8168
671.988	8244
672.04	8242
672.092	8192
672.144	8130
672.195	8250
672.247	8132
672.299	8232
672.351	8294
672.402	8152
672.454	8232
672.506	8308
672.558	8320
672.609	8208
672.661	8194
672.713	8324
672.765	8206
672.816	8278
672.868	8266
672.92	8178
672.971	8320
673.023	8292
673.075	8348
673.127	8306
673.178	8280
673.23	8292
673.282	8318
673.334	8292
673.385	8326
673.437	8310
673.489	8396
673.54	8318
673.592	8378
673.644	8316
673.696	8394
673.747	8392
673.799	8432
673.851	8406
673.903	8360
673.954	8488
674.006	8420
674.058	8476
674.109	8400
674.161	8396
674.213	8428
674.265	8434
674.316	8338
674.368	8490
674.42	8418
674.471	8478
674.523	8540
674.575	8556
674.627	8532
674.678	8480
674.73	8508
674.782	8580
674.833	8580
674.885	8638
674.937	8552
674.989	8508
675.04	8504
675.092	8504
675.144	8606
675.195	8620
675.247	8504
675.299	8540
675.351	8596
675.402	8604
675.454	8720
675.506	8654
675.557	8572
675.609	8616
675.661	8650
675.713	8576
675.764	8576
675.816	8638
675.868	8522
675.919	8576
675.971	8650
676.023	8564
676.074	8608
676.126	8620
676.178	8598
676.23	8662
676.281	8598
676.333	8726
676.385	8714
676.436	8686
676.488	8660
676.54	8572
676.591	8660
676.643	8676
676.695	8608
676.747	8692
676.798	8688
676.85	8580
676.902	8576
676.953	8858
677.005	8726
677.057	8690
677.108	8652
677.16	8722
677.212	8640
677.263	8694
677.315	8644
677.367	8564
677.419	8702
677.47	8722
677.522	8724
677.574	8644
677.625	8674
677.677	8716
677.729	8598
677.78	8648
677.832	8666
677.884	8596
677.935	8702
677.987	8646
678.039	8758
678.091	8680
678.142	8622
678.194	8640
678.246	8612
678.297	8692
678.349	8652
678.401	8710
678.452	8638
678.504	8608
678.556	8632
678.607	8680
678.659	8668
678.711	8706
678.762	8658
678.814	8734
678.866	8538
678.917	8518
678.969	8684
679.021	8682
679.072	8472
679.124	8708
679.176	8666
679.227	8700
679.279	8706
679.331	8564
679.382	8604
679.434	8658
679.486	8658
679.537	8712
679.589	8740
679.641	8756
679.692	8750
679.744	8682
679.796	8696
679.847	8684
679.899	8652
679.951	8752
680.003	8706
680.054	8756
680.106	8718
680.157	8740
680.209	8706
680.261	8634
680.312	8746
680.364	8742
680.416	8700
680.467	8836
680.519	8694
680.571	8752
680.622	8780
680.674	8810
680.726	8750
680.777	8798
680.829	8828
680.881	8714
680.932	8816
680.984	8792
681.036	8768
681.087	8872
681.139	8804
681.191	8832
681.242	8766
681.294	8916
681.346	8762
681.397	8818
681.449	8788
681.501	8858
681.552	8784
681.604	8832
681.656	8868
681.707	8758
681.759	8860
681.81	8884
681.862	8794
681.914	8832
681.965	8970
682.017	8924
682.069	8862
682.12	8802
682.172	8904
682.224	8876
682.275	8814
682.327	8864
682.379	8750
682.43	8916
682.482	8932
682.533	8944
682.585	8748
682.637	8888
682.688	8816
682.74	8812
682.792	8870
682.843	8860
682.895	8884
682.947	8910
682.998	8920
683.05	8868
683.102	8862
683.153	8874
683.205	8922
683.256	9024
683.308	8948
683.36	8928
683.411	8814
683.463	8802
683.515	8950
683.566	8890
683.618	8846
683.669	8954
683.721	8900
683.773	8856
683.824	8802
683.876	8846
683.928	8834
683.979	8844
684.031	8918
684.082	8898
684.134	8906
684.186	8948
684.237	8850
684.289	8906
684.341	8798
684.392	8824
684.444	8720
684.495	8830
684.547	8794
684.599	8876
684.65	8868
684.702	8810
684.754	8826
684.805	8854
684.857	8816
684.908	8818
684.96	8890
685.012	8764
685.063	8834
685.115	8736
685.166	8814
685.218	8862
685.27	8786
685.321	8790
685.373	8732
685.424	8772
685.476	8714
685.528	8690
685.579	8844
685.631	8686
685.683	8678
685.734	8820
685.786	8672
685.837	8720
685.889	8712
685.941	8710
685.992	8772
686.044	8790
686.095	8692
686.147	8722
686.199	8718
686.25	8708
686.302	8724
686.353	8610
686.405	8738
686.457	8654
686.508	8708
686.56	8706
686.611	8604
686.663	8588
686.715	8676
686.766	8688
686.818	8730
686.869	8638
686.921	8678
686.973	8594
687.024	8532
687.076	8684
687.127	8682
687.179	8620
687.231	8736
687.282	8556
687.334	8666
687.385	8630
687.437	8670
687.489	8608
687.54	8652
687.592	8734
687.643	8686
687.695	8690
687.747	8642
687.798	8700
687.85	8680
687.901	8574
687.953	8654
688.004	8634
688.056	8712
688.108	8576
688.159	8656
688.211	8718
688.262	8598
688.314	8668
688.366	8698
688.417	8602
688.469	8526
688.52	8608
688.572	8610
688.623	8600
688.675	8664
688.727	8650
688.778	8560
688.83	8556
688.881	8556
688.933	8688
688.984	8600
689.036	8524
689.088	8578
689.139	8608
689.191	8720
689.242	8672
689.294	8412
689.346	8600
689.397	8616
689.449	8516
689.5	8612
689.552	8628
689.603	8568
689.655	8562
689.706	8652
689.758	8524
689.81	8606
689.861	8510
689.913	8674
689.964	8554
690.016	8560
690.067	8510
690.119	8458
690.171	8564
690.222	8584
690.274	8474
690.325	8538
690.377	8384
690.428	8512
690.48	8500
690.531	8508
690.583	8464
690.635	8494
690.686	8458
690.738	8456
690.789	8474
690.841	8522
690.892	8424
690.944	8492
690.996	8426
691.047	8482
691.099	8456
691.15	8420
691.202	8530
691.253	8476
691.305	8470
691.356	8458
691.408	8328
691.459	8390
691.511	8398
691.563	8474
691.614	8438
691.666	8482
691.717	8408
691.769	8422
691.82	8464
691.872	8432
691.923	8438
691.975	8444
692.026	8354
692.078	8358
692.13	8354
692.181	8264
692.233	8324
692.284	8450
692.336	8390
692.387	8324
692.439	8280
692.49	8310
692.542	8328
692.593	8296
692.645	8284
692.697	8368
692.748	8302
692.8	8260
692.851	8350
692.903	8262
692.954	8224
693.006	8308
693.057	8240
693.109	8168
693.16	8246
693.212	8344
693.263	8272
693.315	8286
693.366	8328
693.418	8138
693.47	8288
693.521	8244
693.573	8140
693.624	8132
693.676	8262
693.727	8160
693.779	8240
693.83	8214
693.882	8268
693.933	8216
693.985	8200
694.036	8228
694.088	8230
694.139	8160
694.191	8222
694.242	8246
694.294	8232
694.345	8140
694.397	8114
694.448	8276
694.5	8184
694.552	8170
694.603	8182
694.655	8146
694.706	8056
694.758	8258
694.809	8106
694.861	8100
694.912	8190
694.964	8106
695.015	8182
695.067	8118
695.118	8092
695.17	8082
695.221	8014
695.273	8176
695.324	8194
695.376	8110
695.427	8180
695.479	8120
695.53	8154
695.582	8162
695.633	8152
695.685	8070
695.736	7984
695.788	8118
695.839	8096
695.891	8144
695.942	7950
695.994	8032
696.045	8084
696.097	8106
696.148	8100
696.2	8070
696.251	8034
696.303	8052
696.354	8044
696.406	8052
696.457	8040
696.509	7992
696.56	8036
696.612	8022
696.663	7950
696.715	7966
696.766	7948
696.818	8012
696.869	8108
696.921	7988
696.972	8034
697.024	7904
697.075	8014
697.127	7890
697.178	7940
697.23	7944
697.281	7966
697.333	7900
697.384	7974
697.436	8020
697.487	7934
697.539	7938
697.59	7880
697.642	7916
697.693	7988
697.745	7910
697.796	7908
697.847	7868
697.899	7860
697.95	7784
698.002	7902
698.053	7730
698.105	7900
698.156	7812
698.208	7842
698.259	7734
698.311	7746
698.362	7896
698.414	7810
698.465	7732
698.517	7752
698.568	7730
698.62	7686
698.671	7682
698.723	7666
698.774	7788
698.826	7744
698.877	7772
698.928	7708
698.98	7758
699.031	7678
699.083	7714
699.134	7708
699.186	7742
699.237	7710
699.289	7662
699.34	7654
699.392	7736
699.443	7680
699.495	7686
699.546	7730
699.598	7602
699.649	7660
699.7	7688
699.752	7718
699.803	7722
699.855	7640
699.906	7682
699.958	7644
700.009	7546
700.061	7656
700.112	7738
700.164	7504
700.215	7632
700.266	7666
700.318	7632
700.369	7682
700.421	7566
700.472	7724
700.524	7574
700.575	7602
700.627	7660
700.678	7690
700.73	7574
700.781	7532
700.832	7590
700.884	7452
700.935	7584
700.987	7634
701.038	7600
701.09	7628
701.141	7582
701.193	7632
701.244	7622
701.295	7648
701.347	7648
701.398	7592
701.45	7700
701.501	7600
701.553	7524
701.604	7680
701.656	7618
701.707	7636
701.758	7660
701.81	7530
701.861	7616
701.913	7658
701.964	7624
702.016	7616
702.067	7642
702.119	7648
702.17	7614
702.221	7630
702.273	7546
702.324	7656
702.376	7636
702.427	7574
702.479	7616
702.53	7660
702.581	7588
702.633	7716
702.684	7608
702.736	7594
702.787	7684
702.839	7666
702.89	7530
702.941	7512
702.993	7642
703.044	7676
703.096	7516
703.147	7664
703.199	7612
703.25	7542
703.301	7594
703.353	7586
703.404	7618
703.456	7602
703.507	7542
703.558	7636
703.61	7564
703.661	7646
703.713	7518
703.764	7454
703.816	7566
703.867	7502
703.918	7574
703.97	7536
704.021	7548
704.073	7524
704.124	7488
704.175	7446
704.227	7490
704.278	7502
704.33	7492
704.381	7400
704.432	7442
704.484	7462
704.535	7458
704.587	7438
704.638	7550
704.69	7440
704.741	7420
704.792	7466
704.844	7500
704.895	7460
704.947	7416
704.998	7496
705.049	7490
705.101	7402
705.152	7378
705.204	7418
705.255	7326
705.306	7366
705.358	7372
705.409	7322
705.461	7372
705.512	7418
705.563	7350
705.615	7386
705.666	7344
705.718	7380
705.769	7322
705.82	7248
705.872	7274
705.923	7350
705.974	7220
706.026	7292
706.077	7262
706.129	7332
706.18	7222
706.231	7256
706.283	7262
706.334	7266
706.386	7262
706.437	7300
706.488	7252
706.54	7196
706.591	7222
706.643	7156
706.694	7246
706.745	7200
706.797	7186
706.848	7188
706.899	7208
706.951	7164
707.002	7106
707.054	7238
707.105	7136
707.156	7052
707.208	7108
707.259	7218
707.31	7166
707.362	7084
707.413	7096
707.465	7008
707.516	7142
707.567	7104
707.619	7078
707.67	7066
707.721	7174
707.773	7132
707.824	7098
707.876	7006
707.927	7062
707.978	7102
708.03	7094
708.081	7038
708.132	7066
708.184	7120
708.235	7042
708.287	7024
708.338	7104
708.389	7056
708.441	7078
708.492	7098
708.543	6976
708.595	7038
708.646	6908
708.697	7036
708.749	7000
708.8	7028
708.852	6914
708.903	6994
708.954	7056
709.006	6988
709.057	7010
709.108	7002
709.16	7018
709.211	7006
709.262	7024
709.314	6998
709.365	7006
709.416	6986
709.468	6916
709.519	7016
709.57	7004
709.622	7000
709.673	6974
709.725	6904
709.776	6926
709.827	7018
709.879	6932
709.93	6966
709.981	6956
710.033	6922
710.084	6940
710.135	6934
710.187	6934
710.238	6906
710.289	6924
710.341	6956
710.392	6968
710.443	6922
710.495	6938
710.546	6876
710.597	6904
710.649	6886
710.7	6870
710.751	6840
710.803	6836
710.854	6876
710.905	6886
710.957	6862
711.008	6812
711.059	6870
711.111	6858
711.162	6762
711.213	6826
711.265	6834.76
711.316	6875.09
711.367	6759.52
711.419	6822.76
711.47	6807.62
711.521	6840.68
711.573	6871.93
711.624	6915.82
711.675	6831.28
711.727	6783.67
711.778	6769.99
711.829	6793.49
711.881	6677.54
711.932	6798.19
711.983	6795.01
712.035	6826.12
712.086	6771.19
712.137	6733.61
712.189	6727.14
712.24	6726.99
712.291	6765.33
712.343	6662.59
712.394	6740.03
712.445	6688.34
712.496	6697.56
712.548	6682.94
712.599	6716.66
712.65	6663.38
712.702	6703.07
712.753	6666.89
712.804	6663.21
712.856	6652.76
712.907	6564.35
712.958	6619.42
713.01	6604.98
713.061	6617.21
713.112	6639.75
713.164	6602.26
713.215	6620.59
713.266	6628.82
713.317	6576.31
713.369	6580.49
713.42	6533.65
713.471	6618.78
713.523	6561.59
713.574	6564.51
713.625	6581.03
713.677	6512.87
713.728	6547.12
713.779	6516.54
713.831	6479.77
713.882	6514.67
713.933	6494.22
713.984	6534.67
714.036	6469.26
714.087	6450.29
714.138	6455.32
714.19	6485.37
714.241	6436.26
714.292	6411.21
714.343	6448.94
714.395	6473.91
714.446	6436
714.497	6433.15
714.549	6435.76
714.6	6451.6
714.651	6450.15
714.703	6417.6
714.754	6425.27
714.805	6361.65
714.856	6394.12
714.908	6399.01
714.959	6376.66
715.01	6351.4
715.062	6393.49
715.113	6396.86
715.164	6326.73
715.215	6316.29
715.267	6319.36
715.318	6323.76
715.369	6326.32
715.421	6313.72
715.472	6332.11
715.523	6330.28
715.574	6311.66
715.626	6328.23
715.677	6286.98
715.728	6294.67
715.779	6252.93
715.831	6203.85
715.882	6221.65
715.933	6237.19
715.985	6268.23
716.036	6238.69
716.087	6302.56
716.138	6291.42
716.19	6300.75
716.241	6226.1
716.292	6208.51
716.343	6292.8
716.395	6281.31
716.433	6226
716.485	6220
716.536	6224
716.588	6202
716.639	6180
716.691	6192
716.742	6248
716.794	6206
716.845	6156
716.897	6182
716.948	6178
717	6188
717.052	6182
717.103	6186
717.155	6162
717.206	6128
717.258	6150
717.309	6176
717.361	6142
717.412	6122
717.464	6128
717.515	6032
717.567	6062
717.618	6108
717.67	6132
717.721	6030
717.773	6084
717.824	6172
717.876	6034
717.927	6086
717.979	6054
718.03	6096
718.082	6058
718.133	6058
718.185	6030
718.237	6074
718.288	6100
718.34	6048
718.391	5952
718.443	6094
718.494	6052
718.546	6008
718.597	5902
718.649	5926
718.7	6010
718.752	6048
718.803	5962
718.855	5934
718.906	5990
718.958	6036
719.009	6028
719.061	5990
719.112	6006
719.164	6002
719.215	5984
719.267	5948
719.318	5846
719.37	5920
719.421	5850
719.473	5906
719.524	5884
719.576	5826
719.627	5800
719.679	5834
719.73	5876
719.782	5880
719.833	5844
719.885	5866
719.936	5816
719.988	5890
720.039	5878
720.091	5826
720.142	5760
720.194	5826
720.245	5764
720.297	5858
720.348	5844
720.4	5794
720.451	5684
720.503	5796
720.554	5740
720.606	5816
720.657	5788
720.709	5804
720.76	5800
720.812	5736
720.863	5728
720.915	5780
720.966	5720
721.018	5720
721.069	5758
721.121	5706
721.172	5690
721.224	5656
721.275	5610
721.327	5688
721.378	5692
721.43	5654
721.481	5662
721.532	5616
721.584	5708
721.635	5726
721.687	5716
721.738	5610
721.79	5688
721.841	5596
721.893	5602
721.944	5698
721.996	5612
722.047	5580
722.099	5518
722.15	5618
722.202	5550
722.253	5592
722.305	5538
722.356	5588
722.408	5524
722.459	5542
722.511	5502
722.562	5578
722.614	5450
722.665	5532
722.716	5550
722.768	5490
722.819	5596
722.871	5540
722.922	5486
722.974	5448
723.025	5476
723.077	5454
723.128	5474
723.18	5498
723.231	5426
723.283	5432
723.334	5410
723.386	5468
723.437	5370
723.488	5414
723.54	5444
723.591	5394
723.643	5408
723.694	5414
723.746	5374
723.797	5450
723.849	5406
723.9	5356
723.952	5320
724.003	5420
724.055	5400
724.106	5282
724.157	5382
724.209	5370
724.26	5360
724.312	5346
724.363	5268
724.415	5326
724.466	5344
724.518	5256
724.569	5300
724.621	5272
724.672	5364
724.723	5324
724.775	5242
724.826	5306
724.878	5306
724.929	5286
724.981	5258
725.032	5290
725.084	5318
725.135	5266
725.187	5282
725.238	5236
725.289	5254
725.341	5252
725.392	5232
725.444	5248
725.495	5250
725.547	5242
725.598	5276
725.65	5206
725.701	5244
725.752	5258
725.804	5200
725.855	5260
725.907	5200
725.958	5190
726.01	5172
726.061	5176
726.112	5120
726.164	5220
726.215	5162
726.267	5164
726.318	5114
726.37	5084
726.421	5190
726.473	5122
726.524	5058
726.575	5126
726.627	5054
726.678	5146
726.73	5082
726.781	5000
726.833	5078
726.884	5032
726.935	5128
726.987	5052
727.038	5080
727.09	5132
727.141	5034
727.193	5122
727.244	5022
727.295	4978
727.347	5042
727.398	4966
727.45	5002
727.501	4996
727.552	4916
727.604	5014
727.655	4982
727.707	4936
727.758	4990
727.81	4912
727.861	4952
727.912	4950
727.964	4980
728.015	5016
728.067	4896
728.118	4966
728.17	4896
728.221	4940
728.272	4922
728.324	4896
728.375	4904
728.427	4842
728.478	4892
728.529	4846
728.581	4906
728.632	4918
728.684	4862
728.735	4808
728.786	4838
728.838	4750
728.889	4756
728.941	4818
728.992	4884
729.044	4786
729.095	4762
729.146	4804
729.198	4706
729.249	4746
729.301	4736
729.352	4752
729.403	4760
729.455	4742
729.506	4738
729.558	4718
729.609	4668
729.66	4630
729.712	4640
729.763	4670
729.815	4696
729.866	4642
729.917	4612
729.969	4700
730.02	4660
730.072	4600
730.123	4648
730.174	4604
730.226	4698
730.277	4650
730.329	4620
730.38	4600
730.431	4596
730.483	4650
730.534	4640
730.586	4612
730.637	4544
730.688	4664
730.74	4558
730.791	4644
730.842	4596
730.894	4546
730.945	4618
730.997	4636
731.048	4588
731.099	4496
731.151	4530
731.202	4540
731.254	4486
731.305	4528
731.356	4550
731.408	4530
731.459	4556
731.51	4556
731.562	4520
731.613	4458
731.665	4546
731.716	4494
731.767	4492
731.819	4488
731.87	4406
731.922	4472
731.973	4472
732.024	4426
732.076	4494
732.127	4520
732.178	4504
732.23	4412
732.281	4454
732.333	4476
732.384	4514
732.435	4422
732.487	4412
732.538	4462
732.589	4460
732.641	4470
732.692	4452
732.744	4414
732.795	4414
732.846	4390
732.898	4412
732.949	4362
733	4418
733.052	4406
733.103	4462
733.154	4450
733.206	4352
733.257	4456
733.309	4408
733.36	4340
733.411	4420
733.463	4414
733.514	4386
733.565	4386
733.617	4372
733.668	4352
733.719	4396
733.771	4334
733.822	4342
733.873	4378
733.925	4310
733.976	4372
734.028	4418
734.079	4302
734.13	4374
734.182	4306
734.233	4300
734.284	4318
734.336	4308
734.387	4296
734.438	4270
734.49	4380
734.541	4310
734.592	4330
734.644	4246
734.695	4324
734.747	4344
734.798	4208
734.849	4290
734.901	4238
734.952	4290
735.003	4322
735.055	4238
735.106	4294
735.157	4314
735.209	4258
735.26	4284
735.311	4196
735.363	4274
735.414	4288
735.465	4254
735.517	4256
735.568	4294
735.619	4226
735.671	4226
735.722	4164
735.773	4236
735.825	4244
735.876	4294
735.927	4182
735.979	4256
736.03	4284
736.081	4238
736.133	4184
736.184	4268
736.235	4220
736.287	4164
736.338	4232
736.389	4162
736.441	4192
736.492	4186
736.543	4206
736.595	4198
736.646	4218
736.697	4236
736.749	4138
736.8	4248
736.851	4172
736.903	4108
736.954	4196
737.005	4116
737.057	4212
737.108	4164
737.159	4156
737.211	4172
737.262	4218
737.313	4144
737.365	4144
737.416	4236
737.467	4158
737.518	4130
737.57	4180
737.621	4150
737.672	4130
737.724	4138
737.775	4132
737.826	4192
737.878	4142
737.929	4162
737.98	4126
738.032	4124
738.083	4166
738.134	4098
738.186	4162
738.237	4100
738.288	4120
738.339	4124
738.391	4080
738.442	4102
738.493	4116
738.545	4074
738.596	4178
738.647	4062
738.699	4082
738.75	4114
738.801	4110
738.853	4088
738.904	4094
738.955	4040
739.006	4040
739.058	4106
739.109	4098
739.16	4064
739.212	4020
739.263	4036
739.314	4050
739.366	4060
739.417	4056
739.468	4072
739.519	4004
739.571	4030
739.622	4068
739.673	4044
739.725	4022
739.776	4074
739.827	3964
739.878	3998
739.93	4048
739.981	4052
740.032	4000
740.084	3968
740.135	3974
740.186	4002
740.237	3964
740.289	4002
740.34	3958
740.391	3926
740.443	3954
740.494	3968
740.545	3990
740.596	3954
740.648	3926
740.699	3950
740.75	3988
740.802	3980
740.853	3966
740.904	3934
740.956	3972
741.007	3946
741.058	3938
741.109	4002
741.161	3978
741.212	3914
741.263	3894
741.314	3928
741.366	3944
741.417	3868
741.468	3852
741.52	3934
741.571	3940
741.622	3900
741.673	3920
741.725	3928
741.776	3828
741.827	3876
741.878	3950
741.93	3892
741.981	3902
742.032	3938
742.083	3858
742.135	3820
742.186	3828
742.237	3880
742.289	3864
742.34	3890
742.391	3860
742.442	3808
742.494	3794
742.545	3862
742.596	3824
742.647	3814
742.699	3758
742.75	3832
742.801	3808
742.852	3804
742.904	3738
742.955	3816
743.006	3738
743.057	3792
743.109	3816
743.16	3750
743.211	3812
743.263	3802
743.314	3738
743.365	3760
743.416	3764
743.468	3768
743.519	3766
743.57	3718
743.621	3734
743.672	3760
743.724	3726
743.775	3794
743.826	3796
743.878	3700
743.929	3694
743.98	3724
744.031	3718
744.083	3710
744.134	3704
744.185	3676
744.236	3718
744.287	3674
744.339	3704
744.39	3708
744.441	3696
744.492	3646
744.544	3652
744.595	3650
744.646	3654
744.697	3752
744.749	3652
744.8	3674
744.851	3638
744.902	3632
744.954	3684
745.005	3664
745.056	3664
745.107	3634
745.159	3660
745.21	3616
745.261	3674
745.312	3658
745.363	3616
745.415	3564
745.466	3630
745.517	3608
745.568	3638
745.62	3630
745.671	3598
745.722	3524
745.773	3644
745.824	3540
745.876	3600
745.927	3578
745.978	3564
746.029	3510
746.081	3594
746.132	3538
746.183	3588
746.234	3582
746.285	3608
746.337	3544
746.388	3586
746.439	3570
746.49	3476
746.542	3574
746.593	3570
746.644	3550
746.695	3558
746.746	3544
746.798	3436
746.849	3496
746.9	3556
746.951	3504
747.003	3552
747.054	3506
747.105	3534
747.156	3526
747.207	3484
747.259	3504
747.31	3506
747.361	3520
747.412	3486
747.463	3524
747.515	3460
747.566	3454
747.617	3548
747.668	3474
747.719	3506
747.771	3476
747.822	3470
747.873	3436
747.924	3462
747.975	3432
748.027	3444
748.078	3480
748.129	3494
748.18	3460
748.231	3490
748.283	3474
748.334	3466
748.385	3454
748.436	3476
748.487	3474
748.539	3436
748.59	3440
748.641	3396
748.692	3394
748.743	3420
748.795	3402
748.846	3408
748.897	3436
748.948	3438
748.999	3390
749.05	3434
749.102	3434
749.153	3380
749.204	3404
749.255	3362
749.306	3352
749.358	3410
749.409	3370
749.46	3410
749.511	3352
749.562	3374
749.614	3332
749.665	3424
749.716	3360
749.767	3362
749.818	3396
749.869	3360
749.921	3416
749.972	3370
750.023	3384
750.074	3356
750.125	3342
750.177	3358
750.228	3358
750.279	3326
750.33	3372
750.381	3320
750.432	3296
750.484	3294
750.535	3336
750.586	3280
750.637	3260
750.688	3358
750.739	3304
750.791	3270
750.842	3288
750.893	3306
750.944	3334
750.995	3262
751.046	3270
751.098	3226
751.149	3258
751.2	3208
751.251	3228
751.302	3284
751.353	3260
751.404	3186
751.456	3236
751.507	3274
751.558	3220
751.609	3218
751.66	3246
751.711	3240
751.763	3236
751.814	3172
751.865	3174
751.916	3192
751.967	3230
752.018	3216
752.07	3194
752.121	3202
752.172	3222
752.223	3194
752.274	3190
752.325	3126
752.376	3134
752.428	3176
752.479	3170
752.53	3152
752.581	3184
752.632	3162
752.683	3204
752.734	3160
752.786	3104
752.837	3138
752.888	3164
752.939	3138
752.99	3142
753.041	3104
753.092	3122
753.144	3056
753.195	3098
753.246	3092
753.297	3126
753.348	3112
753.399	3068
753.45	3066
753.502	3098
753.553	3070
753.604	3104
753.655	3130
753.706	3058
753.757	3098
753.808	3072
753.859	3050
753.911	3060
753.962	2996
754.013	3102
754.064	3114
754.115	3052
754.166	3092
754.217	3062
754.269	3000
754.32	3020
754.371	3044
754.422	3002
754.473	3034
754.524	3052
754.575	3020
754.626	2994
754.678	2996
754.729	2956
754.78	3014
754.831	3014
754.882	3006
754.933	3006
754.984	2946
755.035	3024
755.086	3042
755.138	2984
755.189	2982
755.24	2958
755.291	2968
755.342	2944
755.393	2906
755.444	2996
755.495	3002
755.547	2914
755.598	2956
755.649	2908
755.7	2916
755.751	2974
755.802	2966
755.853	2970
755.904	2926
755.955	2972
756.006	2912
756.058	2886
756.109	2952
756.16	2874
756.211	2936
756.262	2894
756.313	2916
756.364	2840
756.415	2840
756.466	2916
756.518	2820
756.569	2972
756.62	2852
756.671	2886
756.722	2886
756.773	2894
756.824	2914
756.875	2908
756.926	2878
756.977	2864
757.029	2856
757.08	2852
757.131	2852
757.182	2824
757.233	2834
757.284	2806
757.335	2856
757.386	2858
757.437	2836
757.488	2862
757.539	2822
757.59	2826
757.642	2814
757.693	2778
757.744	2810
757.795	2802
757.846	2838
757.897	2768
757.948	2832
757.999	2808
758.05	2816
758.101	2818
758.152	2760
758.203	2798
758.255	2782
758.306	2774
758.357	2776
758.408	2790
758.459	2786
758.51	2793.97
758.561	2775.74
758.612	2794.8
758.663	2790.75
758.714	2786.33
758.765	2773.47
758.816	2762.4
758.867	2751.01
758.919	2770.9
758.97	2780.14
759.021	2770.47
759.072	2762.66
759.123	2737.46
759.174	2718.25
759.225	2716.41
759.276	2737.63
759.327	2716.54
759.378	2703.75
759.429	2723.61
759.48	2693.61
759.531	2709.34
759.582	2625.25
759.633	2710.63
759.685	2684.85
759.736	2707.14
759.787	2686.67
759.838	2719.61
759.889	2699.79
759.94	2733.06
759.991	2720.62
760.042	2650.86
760.093	2678.06
760.144	2662.48
760.195	2624.28
760.246	2651.46
760.297	2651.98
760.348	2617.22
760.399	2615.16
760.45	2635.95
760.501	2640.26
760.552	2609.58
760.603	2623.45
760.655	2662.72
760.706	2610.7
760.757	2592.24
760.808	2626.92
760.859	2608.67
760.91	2587.35
760.961	2630.52
761.012	2607.4
761.063	2625.4
761.114	2553.96
761.165	2567.06
761.216	2616.27
761.267	2603.04
761.318	2610.96
761.369	2578.52
761.42	2556.61
761.471	2585.22
761.522	2557.14
761.573	2607.15
761.624	2568.22
761.675	2596.3
761.726	2605.8
761.777	2572.54
761.828	2598.22
761.88	2585.64
761.931	2597.37
761.982	2570.47
762.033	2573.04
762.084	2517.5
762.135	2546.91
762.186	2594.78
762.237	2552.39
762.288	2573.76
762.339	2513.93
762.39	2511.99
762.441	2538.43
762.492	2523.21
762.543	2549.83
762.594	2501.27
762.645	2456.95
762.696	2534.22
762.747	2508.55
762.798	2506.06
762.849	2467.5
762.9	2485.69
762.951	2513.32
763.002	2478.04
763.053	2474.59
763.104	2483.78
763.155	2487.43
763.206	2457.02
763.257	2462.37
763.308	2468.65
763.359	2474.19
763.41	2482.62
763.461	2520.18
763.512	2487.07
763.563	2479.97
763.614	2454.74
763.665	2452.19
763.678	2454
763.729	2464
763.78	2436
763.832	2436
763.883	2454
763.934	2470
763.986	2434
764.037	2414
764.088	2436
764.139	2390
764.191	2474
764.242	2432
764.293	2476
764.345	2462
764.396	2390
764.447	2418
764.498	2422
764.55	2420
764.601	2396
764.652	2460
764.704	2398
764.755	2382
764.806	2362
764.857	2398
764.909	2380
764.96	2338
765.011	2412
765.062	2332
765.114	2366
765.165	2368
765.216	2380
765.268	2348
765.319	2386
765.37	2318
765.421	2364
765.473	2408
765.524	2282
765.575	2324
765.626	2316
765.678	2386
765.729	2340
765.78	2370
765.831	2310
765.883	2306
765.934	2352
765.985	2346
766.036	2338
766.088	2274
766.139	2356
766.19	2244
766.242	2214
766.293	2276
766.344	2322
766.395	2314
766.447	2300
766.498	2310
766.549	2266
766.6	2292
766.652	2246
766.703	2288
766.754	2340
766.805	2286
766.857	2310
766.908	2272
766.959	2268
767.01	2272
767.062	2266
767.113	2274
767.164	2244
767.215	2270
767.267	2202
767.318	2256
767.369	2274
767.42	2234
767.472	2236
767.523	2242
767.574	2240
767.625	2154
767.677	2210
767.728	2212
767.779	2288
767.83	2220
767.882	2220
767.933	2206
767.984	2216
768.035	2220
768.087	2252
768.138	2216
768.189	2228
768.24	2204
768.292	2194
768.343	2232
768.394	2152
768.445	2178
768.497	2128
768.548	2142
768.599	2150
768.65	2138
768.701	2172
768.753	2178
768.804	2180
768.855	2180
768.906	2086
768.958	2170
769.009	2168
769.06	2136
769.111	2158
769.163	2126
769.214	2102
769.265	2116
769.316	2122
769.367	2138
769.419	2094
769.47	2144
769.521	2104
769.572	2112
769.624	2082
769.675	2130
769.726	2098
769.777	2070
769.828	2098
769.88	2104
769.931	2126
769.982	2098
770.033	2108
770.085	2092
770.136	2124
770.187	2082
770.238	2020
770.289	2096
770.341	2072
770.392	2114
770.443	2072
770.494	2086
770.546	2098
770.597	2020
770.648	2040
770.699	2048
770.75	2038
770.802	2062
770.853	2074
770.904	2054
770.955	2044
771.006	2028
771.058	2008
771.109	2058
771.16	2044
771.211	2040
771.263	2038
771.314	2028
771.365	2000
771.416	1956
771.467	2046
771.519	2024
771.57	2036
771.621	1974
771.672	2018
771.723	1936
771.775	1984
771.826	2002
771.877	2000
771.928	1988
771.979	1966
772.031	1978
772.082	1964
772.133	1982
772.184	1956
772.235	2002
772.287	1984
772.338	1918
772.389	1954
772.44	1976
772.491	2004
772.543	1948
772.594	1948
772.645	1968
772.696	1956
772.747	1986
772.799	1912
772.85	1902
772.901	1924
772.952	1902
773.003	1908
773.055	1888
773.106	1828
773.157	1952
773.208	1914
773.259	1924
773.31	1876
773.362	1908
773.413	1918
773.464	1902
773.515	1880
773.566	1842
773.618	1850
773.669	1906
773.72	1840
773.771	1926
773.822	1884
773.873	1898
773.925	1890
773.976	1904
774.027	1820
774.078	1872
774.129	1898
774.18	1848
774.232	1848
774.283	1906
774.334	1872
774.385	1850
774.436	1842
774.488	1844
774.539	1854
774.59	1806
774.641	1818
774.692	1810
774.743	1832
774.795	1850
774.846	1828
774.897	1798
774.948	1824
774.999	1814
775.05	1838
775.102	1806
775.153	1782
775.204	1828
775.255	1834
775.306	1796
775.357	1808
775.409	1806
775.46	1762
775.511	1782
775.562	1788
775.613	1822
775.664	1802
775.716	1816
775.767	1774
775.818	1740
775.869	1778
775.92	1760
775.971	1754
776.023	1782
776.074	1750
776.125	1746
776.176	1764
776.227	1752
776.278	1720
776.329	1746
776.381	1734
776.432	1786
776.483	1768
776.534	1732
776.585	1762
776.636	1722
776.688	1758
776.739	1718
776.79	1736
776.841	1748
776.892	1730
776.943	1708
776.994	1700
777.046	1690
777.097	1726
777.148	1732
777.199	1738
777.25	1712
777.301	1724
777.352	1758
777.404	1678
777.455	1708
777.506	1686
777.557	1694
777.608	1672
777.659	1736
777.71	1690
777.762	1694
777.813	1678
777.864	1724
777.915	1656
777.966	1660
778.017	1656
778.068	1642
778.12	1636
778.171	1666
778.222	1644
778.273	1676
778.324	1642
778.375	1608
778.426	1666
778.477	1670
778.529	1654
778.58	1702
778.631	1658
778.682	1630
778.733	1616
778.784	1580
778.835	1614
778.886	1594
778.938	1636
778.989	1612
779.04	1656
779.091	1606
779.142	1674
779.193	1616
779.244	1594
779.295	1648
779.347	1606
779.398	1630
779.449	1612
779.5	1626
779.551	1606
779.602	1602
779.653	1600
779.704	1594
779.755	1656
779.807	1576
779.858	1544
779.909	1594
779.96	1604
780.011	1576
780.062	1554
780.113	1556
780.164	1602
780.216	1560
780.267	1568
780.318	1544
780.369	1590
780.42	1538
780.471	1538
780.522	1508
780.573	1568
780.624	1546
780.675	1548
780.727	1526
780.778	1534
780.829	1528
780.88	1520
780.931	1550
780.982	1522
781.033	1508
781.084	1534
781.135	1526
781.187	1510
781.238	1486
781.289	1516
781.34	1516
781.391	1508
781.442	1514
781.493	1510
781.544	1490
781.595	1536
781.646	1536
781.698	1464
781.749	1500
781.8	1518
781.851	1492
781.902	1516
781.953	1502
782.004	1488
782.055	1474
782.106	1464
782.157	1470
782.208	1474
782.26	1462
782.311	1492
782.362	1450
782.413	1430
782.464	1468
782.515	1480
782.566	1434
782.617	1456
782.668	1466
782.719	1446
782.77	1462
782.821	1450
782.872	1468
782.924	1498
782.975	1450
783.026	1440
783.077	1426
783.128	1422
783.179	1448
783.23	1418
783.281	1428
783.332	1476
783.383	1446
783.434	1380
783.485	1440
783.536	1458
783.588	1376
783.639	1398
783.69	1404
783.741	1428
783.792	1374
783.843	1420
783.894	1382
783.945	1408
783.996	1394
784.047	1400
784.098	1402
784.149	1408
784.2	1400
784.252	1380
784.303	1388
784.354	1384
784.405	1370
784.456	1334
784.507	1402
784.558	1380
784.609	1374
784.66	1370
784.711	1398
784.762	1362
784.813	1378
784.864	1374
784.915	1352
784.966	1330
785.017	1354
785.068	1320
785.12	1354
785.171	1354
785.222	1378
785.273	1386
785.324	1366
785.375	1332
785.426	1338
785.477	1364
785.528	1350
785.579	1340
785.63	1340
785.681	1350
785.732	1346
785.783	1332
785.834	1322
785.885	1360
785.936	1290
785.987	1336
786.038	1352
786.089	1344
786.141	1294
786.192	1314
786.243	1346
786.294	1326
786.345	1320
786.396	1298
786.447	1330
786.498	1320
786.549	1284
786.6	1314
786.651	1304
786.702	1278
786.753	1290
786.804	1312
786.855	1300
786.906	1268
786.957	1302
787.008	1284
787.059	1292
787.11	1272
787.161	1262
787.212	1266
787.263	1286
787.314	1254
787.365	1268
787.416	1286
787.467	1274
787.518	1276
787.57	1310
787.621	1236
787.672	1262
787.723	1244
787.774	1284
787.825	1242
787.876	1260
787.927	1262
787.978	1214
788.029	1286
788.08	1274
788.131	1238
788.182	1250
788.233	1258
788.284	1222
788.335	1178
788.386	1234
788.437	1230
788.488	1234
788.539	1218
788.59	1222
788.641	1244
788.692	1262
788.743	1220
788.794	1222
788.845	1240
788.896	1210
788.947	1198
788.998	1196
789.049	1198
789.1	1194
789.151	1182
789.202	1194
789.253	1200
789.304	1198
789.355	1170
789.406	1196
789.457	1190
789.508	1210
789.559	1208
789.61	1194
789.661	1176
789.712	1210
789.763	1190
789.814	1194
789.865	1174
789.916	1192
789.967	1164
790.018	1180
790.069	1178
790.12	1134
790.171	1140
790.222	1154
790.273	1156
790.324	1164
790.375	1152
790.426	1162
790.477	1134
790.528	1130
790.579	1156
790.63	1138
790.681	1122
790.732	1140
790.783	1148
790.834	1154
790.885	1138
790.936	1146
790.987	1156
791.038	1140
791.089	1172
791.14	1106
791.191	1106
791.242	1138
791.293	1124
791.344	1108
791.395	1150
791.446	1148
791.497	1130
791.548	1098
791.599	1098
791.65	1092
791.701	1160
791.752	1156
791.803	1132
791.854	1100
791.905	1126
791.956	1068
792.007	1112
792.058	1088
792.109	1092
792.16	1068
792.211	1118
792.262	1100
792.313	1132
792.363	1114
792.414	1086
792.465	1082
792.516	1104
792.567	1088
792.618	1092
792.669	1068
792.72	1100
792.771	1086
792.822	1060
792.873	1098
792.924	1096
792.975	1096
793.026	1050
793.077	1098
793.128	1080
793.179	1044
793.23	1084
793.281	1050
793.332	1070
793.383	1052
793.434	1086
793.485	1066
793.536	1054
793.587	1070
793.638	1072
793.689	1054
793.74	1026
793.79	1070
793.841	1036
793.892	1046
793.943	1056
793.994	1032
794.045	1036
794.096	1042
794.147	1034
794.198	1036
794.249	1020
794.3	1020
794.351	1044
794.402	1032
794.453	1042
794.504	1036
794.555	1026
794.606	1040
794.657	1016
794.708	1022
794.758	998
794.809	1002
794.86	958
794.911	1016
794.962	1018
795.013	1006
795.064	1030
795.115	1030
795.166	994
795.217	1020
795.268	1008
795.319	978
795.37	994
795.421	978
795.472	1026
795.523	996
795.573	996
795.624	970
795.675	998
795.726	996
795.777	978
795.828	984
795.879	978
795.93	986
795.981	1006
796.032	972
796.083	960
796.134	1006
796.185	988
796.236	954
796.286	974
796.337	970
796.388	968
796.439	974
796.49	996
796.541	960
796.592	990
796.643	966
796.694	972
796.745	958
796.796	968
796.847	964
796.897	910
796.948	940
796.999	962
797.05	954
797.101	946
797.152	944
797.203	940
797.254	964
797.305	910
797.356	930
797.407	936
797.458	944
797.508	930
797.559	954
797.61	920
797.661	940
797.712	928
797.763	950
797.814	924
797.865	936
797.916	902
797.967	932
798.018	916
798.068	904
798.119	924
798.17	922
798.221	950
798.272	906
798.323	904
798.374	920
798.425	912
798.476	894
798.526	890
798.577	878
798.628	926
798.679	892
798.73	872
798.781	922
798.832	866
798.883	888
798.934	892
798.984	896
799.035	886
799.086	872
799.137	902
799.188	872
799.239	898
799.29	858
799.341	910
799.392	874
799.443	866
799.493	884
799.544	898
799.595	858
799.646	872
799.697	866
799.748	870
799.799	874
799.85	898
799.9	852
799.951	854
800.002	830
800.053	884
800.104	848
800.155	846
800.206	860
800.257	854
800.307	890
800.358	880
800.409	832
800.46	862
800.511	844
800.562	862
800.613	862
800.664	848
800.714	826
800.765	840
800.816	856
800.867	806
800.918	856
800.969	822
801.02	860
801.07	820
801.121	822
801.172	844
801.223	814
801.274	854
801.325	816
801.376	846
801.427	836
801.477	804
801.528	848
801.579	794
801.63	828
801.681	784
801.732	844
801.783	786
801.833	826
801.884	814
801.935	802
801.986	818
802.037	820
802.088	804
802.139	812
802.189	812
802.24	822
802.291	830
802.342	800
802.393	792
802.444	806
802.495	840
802.545	754
802.596	788
802.647	818
802.698	796
802.749	790
802.8	792
802.85	818
802.901	816
802.952	812
803.003	788
803.054	806
803.105	772
803.155	788
803.206	804
803.257	772
803.308	780
803.359	776
803.41	764
803.46	760
803.511	768
803.562	766
803.613	768
803.664	784
803.715	784
803.765	774
803.816	758
803.867	778
803.918	752
803.969	774
804.02	784
804.07	760
804.121	788
804.172	742
804.223	766
804.274	762
804.325	784
804.375	780
804.426	770
804.477	764
804.528	768
804.579	770
804.63	736
804.68	752
804.731	782
804.782	744
804.833	744
804.884	746
804.934	756
804.985	738
805.036	732
805.087	770
805.138	746
805.188	732
805.239	726
805.29	746
805.341	722
805.392	736
805.443	722
805.493	734.029
805.544	744.112
805.595	722.646
805.646	695.217
805.697	726.846
805.747	744.451
805.798	738.148
805.849	720.655
805.9	759.253
805.951	711.35
806.001	707.328
806.052	732.228
806.103	758.094
806.154	714.152
806.205	725.493
806.255	730.248
806.306	722.5
806.357	695.994
806.408	700.258
806.459	704.684
806.509	711.798
806.56	721.697
806.611	709.118
806.662	715.386
806.713	706.197
806.763	686.259
806.814	715.835
806.865	693.723
806.916	699.294
806.967	698.603
807.017	697.797
807.068	705.198
807.119	697.03
807.17	701.49
807.22	698.839
807.271	699.863
807.322	696.792
807.373	689.094
807.424	682.672
807.474	690.994
807.525	694.705
807.576	681.288
807.627	688.923
807.678	695.92
807.728	692.195
807.779	688.315
807.83	706.342
807.881	672.966
807.931	673.734
807.982	673.097
808.033	657.67
808.084	692.52
808.135	663.969
808.185	685.928
808.236	684.633
808.287	689.409
808.338	675.721
808.388	691.117
808.439	683.385
808.49	681.819
808.541	682.89
808.591	666.659
808.642	669.282
808.693	662.271
808.744	670.211
808.795	657.332
808.845	663.769
808.896	664.32
808.947	673.727
808.998	655.284
809.048	667.808
809.099	654.25
809.15	661.818
809.201	662.455
809.251	672.832
809.302	659.686
809.353	635.484
809.404	644.205
809.454	651.886
809.505	645.64
809.556	640.849
809.607	644.911
809.658	662.312
809.708	659.459
809.759	629.365
809.81	661.89
809.861	649.587
809.911	627.437
809.962	627.464
810.013	657.036
810.064	648.315
810.114	637.51
810.165	623.93
810.216	634.581
810.267	633.029
810.317	627.961
810.368	632.073
810.419	626.025
810.469	635.225
810.52	630.833
810.571	640.634
810.622	620.565
810.627	618
810.678	604
810.729	606
810.78	644
810.831	608
810.882	606
810.933	612
810.984	640
811.035	624
811.086	590
811.137	616
811.188	628
811.239	618
811.29	614
811.341	620
811.392	624
811.443	620
811.494	616
811.545	618
811.596	602
811.648	614
811.699	606
811.75	602
811.801	596
811.852	608
811.903	620
811.954	606
812.005	618
812.056	592
812.107	596
812.158	592
812.209	590
812.26	608
812.311	574
812.362	598
812.413	590
812.464	590
812.515	596
812.566	586
812.617	600
812.668	624
812.719	592
812.77	598
812.821	594
812.872	572
812.923	590
812.974	580
813.025	600
813.076	596
813.127	574
813.178	580
813.229	584
813.28	566
813.331	598
813.382	580
813.433	604
813.484	562
813.535	560
813.586	576
813.637	578
813.688	574
813.739	588
813.79	580
813.841	578
813.892	572
813.943	572
813.994	578
814.045	574
814.096	556
814.147	570
814.198	554
814.249	582
814.3	578
814.351	580
814.402	558
814.453	564
814.504	536
814.555	580
814.606	552
814.657	572
814.708	578
814.759	546
814.81	558
814.861	548
814.912	568
814.963	548
815.014	564
815.065	554
815.116	520
815.167	546
815.217	540
815.268	550
815.319	548
815.37	558
815.421	544
815.472	548
815.523	538
815.574	554
815.625	542
815.676	550
815.727	550
815.778	542
815.829	568
815.88	538
815.931	538
815.982	540
816.033	556
816.084	542
816.135	540
816.186	530
816.237	532
816.288	522
816.339	528
816.39	528
816.441	550
816.492	526
816.543	520
816.594	540
816.645	524
816.696	542
816.747	524
816.798	548
816.849	522
816.9	550
816.951	524
817.001	520
817.052	522
817.103	522
817.154	518
817.205	520
817.256	530
817.307	530
817.358	498
817.409	530
817.46	516
817.511	522
817.562	516
817.613	500
817.664	516
817.715	510
817.766	514
817.817	508
817.868	510
817.919	518
817.97	516
818.021	506
818.071	520
818.122	524
818.173	522
818.224	494
818.275	506
818.326	524
818.377	472
818.428	516
818.479	500
818.53	520
818.581	500
818.632	506
818.683	478
818.734	494
818.785	494
818.836	502
818.887	484
818.938	510
818.988	498
819.039	512
819.09	506
819.141	486
819.192	490
819.243	478
819.294	496
819.345	506
819.396	480
819.447	496
819.498	488
819.549	486
819.6	480
819.651	490
819.702	500
819.753	494
819.803	448
819.854	482
819.905	494
819.956	472
820.007	466
820.058	468
820.109	486
820.16	474
820.211	474
820.262	480
820.313	472
820.364	490
820.415	484
820.465	484
820.516	464
820.567	478
820.618	472
820.669	468
820.72	474
820.771	480
820.822	462
820.873	470
820.924	466
820.975	490
821.026	442
821.076	456
821.127	470
821.178	470
821.229	476
821.28	450
821.331	470
821.382	464
821.433	464
821.484	462
821.535	458
821.586	436
821.637	452
821.687	460
821.738	442
821.789	462
821.84	446
821.891	476
821.942	442
821.993	448
822.044	464
822.095	454
822.146	442
822.196	448
822.247	454
822.298	434
822.349	482
822.4	464
822.451	444
822.502	468
822.553	454
822.604	468
822.655	436
822.706	424
822.756	452
822.807	426
822.858	452
822.909	438
822.96	446
823.011	428
823.062	460
823.113	436
823.164	454
823.214	432
823.265	456
823.316	442
823.367	428
823.418	436
823.469	422
823.52	434
823.571	446
823.622	424
823.672	420
823.723	454
823.774	426
823.825	430
823.876	444
823.927	432
823.978	418
824.029	438
824.08	434
824.13	418
824.181	432
824.232	424
824.283	440
824.334	416
824.385	442
824.436	414
824.487	430
824.537	446
824.588	418
824.639	406
824.69	436
824.741	404
824.792	432
824.843	412
824.893	418
824.944	410
824.995	428
825.046	414
825.097	412
825.148	420
825.199	412
825.25	412
825.3	394
825.351	430
825.402	400
825.453	396
825.504	398
825.555	388
825.606	424
825.657	430
825.707	414
825.758	418
825.809	416
825.86	414
825.911	408
825.962	416
826.013	406
826.063	412
826.114	412
826.165	426
826.216	392
826.267	398
826.318	410
826.369	418
826.419	402
826.47	404
826.521	390
826.572	414
826.623	398
826.674	410
826.725	410
826.775	398
826.826	394
826.877	390
826.928	394
826.979	384
827.03	406
827.08	406
827.131	402
827.182	396
827.233	410
827.284	388
827.335	418
827.386	402
827.436	412
827.487	392
827.538	370
827.589	394
827.64	398
827.691	390
827.741	410
827.792	390
827.843	398
827.894	398
827.945	388
827.996	384
828.046	398
828.097	380
828.148	376
828.199	380
828.25	404
828.301	380
828.351	378
828.402	374
828.453	394
828.504	382
828.555	382
828.606	382
828.656	394
828.707	370
828.758	392
828.809	354
828.86	380
828.911	366
828.961	362
829.012	370
829.063	386
829.114	378
829.165	390
829.216	376
829.266	372
829.317	376
829.368	378
829.419	382
829.47	366
829.52	394
829.571	370
829.622	386
829.673	372
829.724	366
829.774	362
829.825	380
829.876	368
829.927	364
829.978	352
830.029	374
830.079	366
830.13	370
830.181	364
830.232	364
830.283	366
830.333	362
830.384	358
830.435	370
830.486	380
830.537	374
830.587	358
830.638	390
830.689	352
830.74	338
830.791	366
830.841	354
830.892	370
830.943	368
830.994	362
831.045	374
831.095	360
831.146	348
831.197	358
831.248	364
831.299	348
831.349	350
831.4	368
831.451	350
831.502	340
831.553	342
831.603	368
831.654	344
831.705	356
831.756	346
831.807	356
831.857	336
831.908	352
831.959	354
832.01	352
832.061	362
832.111	348
832.162	336
832.213	346
832.264	348
832.315	330
832.365	352
832.416	344
832.467	346
832.518	336
832.568	348
832.619	344
832.67	338
832.721	350
832.772	342
832.822	362
832.873	328
832.924	314
832.975	350
833.025	346
833.076	332
833.127	348
833.178	328
833.229	328
833.279	348
833.33	332
833.381	340
833.432	358
833.482	328
833.533	344
833.584	326
833.635	334
833.685	324
833.736	330
833.787	346
833.838	326
833.889	326
833.939	334
833.99	324
834.041	358
834.092	340
834.142	342
834.193	348
834.244	330
834.295	328
834.345	334
834.396	342
834.447	334
834.498	342
834.548	338
834.599	336
834.65	328
834.701	326
834.751	322
834.802	318
834.853	332
834.904	322
834.954	326
835.005	316
835.056	320
835.107	312
835.157	324
835.208	328
835.259	308
835.31	314
835.36	332
835.411	314
835.462	328
835.513	322
835.563	320
835.614	324
835.665	324
835.716	336
835.766	332
835.817	330
835.868	322
835.919	292
835.969	318
836.02	328
836.071	336
836.122	332
836.172	326
836.223	316
836.274	330
836.325	298
836.375	334
836.426	330
836.477	312
836.528	318
836.578	318
836.629	308
836.68	324
836.73	310
836.781	326
836.832	302
836.883	300
836.933	304
836.984	326
837.035	312
837.086	314
837.136	310
837.187	322
837.238	322
837.288	306
837.339	316
837.39	306
837.441	302
837.491	304
837.542	290
837.593	292
837.643	316
837.694	302
837.745	310
837.796	304
837.846	310
837.897	298
837.948	304
837.999	304
838.049	292
838.1	294
838.151	296
838.201	308
838.252	308
838.303	270
838.354	318
838.404	304
838.455	308
838.506	298
838.556	300
838.607	292
838.658	306
838.708	310
838.759	292
838.81	312
838.861	298
838.911	288
838.962	296
839.013	306
839.063	274
839.114	318
839.165	304
839.216	304
839.266	296
839.317	290
839.368	292
839.418	308
839.469	292
839.52	276
839.57	288
839.621	300
839.672	286
839.722	282
839.773	288
839.824	284
839.875	282
839.925	280
839.976	288
840.027	298
840.077	286
840.128	296
840.179	280
840.229	280
840.28	278
840.331	288
840.381	296
840.432	272
840.483	272
840.534	292
840.584	294
840.635	268
840.686	288
840.736	284
840.787	286
840.838	260
840.888	284
840.939	280
840.99	292
841.04	288
841.091	276
841.142	274
841.192	288
841.243	262
841.294	296
841.344	284
841.395	272
841.446	262
841.496	278
841.547	292
841.598	306
841.648	268
841.699	280
841.75	290
841.8	288
841.851	268
841.902	274
841.952	286
842.003	270
842.054	258
842.104	280
842.155	276
842.206	272
842.256	260
842.307	280
842.358	282
842.408	264
842.459	270
842.51	276
842.56	268
842.611	268
842.662	274
842.712	278
842.763	264
842.814	258
842.864	260
842.915	284
842.966	254
843.016	260
843.067	272
843.118	276
843.168	270
843.219	268
843.269	270
843.32	274
843.371	268
843.421	272
843.472	250
843.523	286
843.573	264
843.624	246
843.675	284
843.725	276
843.776	280
843.827	246
843.877	266
843.928	246
843.979	276
844.029	264
844.08	256
844.13	266
844.181	272
844.232	252
844.282	270
844.333	274
844.384	256
844.434	252
844.485	260
844.536	272
844.586	264
844.637	258
844.687	266
844.738	264
844.789	270
844.839	260
844.89	258
844.941	266
844.991	260
845.042	272
845.092	254
845.143	248
845.194	252
845.244	258
845.295	240
845.346	260
845.396	248
845.447	258
845.497	252
845.548	242
845.599	240
845.649	252
845.7	252
845.75	260
845.801	242
845.852	274
845.902	254
845.953	252
846.004	248
846.054	248
846.105	246
846.155	256
846.206	246
846.257	260
846.307	254
846.358	258
846.409	258
846.459	258
846.51	254
846.56	242
846.611	238
846.661	254
846.712	236
846.763	242
846.813	246
846.864	242
846.915	260
846.965	254
847.016	242
847.066	240
847.117	248
847.168	236
847.218	244
847.269	258
847.319	246
847.37	236
847.421	248
847.471	254
847.522	244
847.572	226
847.623	224
847.674	228
847.724	232
847.775	226
847.825	248
847.876	236
847.926	250
847.977	232
848.028	232
848.078	238
848.129	236
848.179	234
848.23	250
848.281	244
848.331	244
848.382	238
848.432	236
848.483	232
848.534	222
848.584	216
848.635	234
848.685	236
848.736	232
848.786	228
848.837	246
848.888	230
848.938	240
848.989	242
849.039	248
849.09	240
849.14	232
849.191	228
849.242	236
849.292	232
849.343	224
849.393	228
849.444	236
849.494	230
849.545	224
849.596	242
849.646	248
849.697	224
849.747	212
849.798	216
849.848	236
849.899	232
849.95	220
850	232
850.051	222
850.101	220
850.152	228
850.202	220
850.253	226
850.303	220
850.354	232
850.405	234
850.455	216
850.506	208
850.556	226
850.607	220
850.657	218
850.708	220
850.758	222
850.809	230
850.86	228
850.91	234
850.961	218
851.011	218
851.062	242
851.112	198
851.163	226
851.213	220
851.264	224
851.314	224
851.365	220
851.416	222
851.466	224
851.517	210
851.567	212
851.618	204
851.668	216
851.719	216
851.769	232
851.82	214
851.87	212
851.921	212
851.971	228
852.022	220
852.073	222
852.123	212
852.174	218
852.224	224
852.275	222
852.325	208.032
852.376	229.899
852.426	213.56
852.477	229.507
852.527	226.233
852.578	223.011
852.628	221.349
852.679	212.297
852.729	212.508
852.78	210.895
852.831	210.178
852.881	207.346
852.932	204.169
852.982	209.103
853.033	227.694
853.083	225.02
853.134	214.679
853.184	218.327
853.235	215.021
853.285	203.92
853.336	205.436
853.386	216.765
853.437	209.339
853.487	206.47
853.538	209.316
853.588	211.927
853.639	207.971
853.689	196.898
853.74	207.585
853.79	203.05
853.841	217.931
853.891	216.832
853.942	209.398
853.992	212.803
854.043	201.78
854.093	202.246
854.144	209.972
854.194	202.018
854.245	210.485
854.295	204.74
854.346	198.998
854.396	207.636
854.447	198.77
854.497	208.879
854.548	199.987
854.598	204.095
854.649	208.638
854.699	197.5
854.75	201.238
854.8	197.735
854.851	213.951
854.901	201.593
854.952	203.834
855.002	203.522
855.053	203.215
855.103	211.838
855.154	206.41
855.204	206.484
855.255	215.16
855.305	199.963
855.356	202.66
855.406	204.122
855.457	196.285
855.507	195.308
855.558	202.157
855.608	193.779
855.659	199.4
855.709	201.352
855.76	195.914
855.81	196.615
855.861	196.786
855.911	198.046
855.962	190.613
856.012	185.908
856.063	184.638
856.113	192.337
856.164	192.701
856.214	197.537
856.265	191.213
856.315	197.267
856.366	196.863
856.416	198.675
856.467	202.526
856.517	202.561
856.568	194.742
856.618	189.48
856.668	186.153
856.719	195.098
856.769	195.738
856.82	190.121
856.87	186.86
856.921	198.72
856.971	200.482
857.022	190.422
857.072	191.624
857.123	199.251
857.173	195.513
857.224	191.16
857.274	196.756
857.325	199.014
857.352	198
857.403	190
857.453	196
857.504	182
857.555	196
857.606	186
857.656	188
857.707	206
857.758	198
857.809	188
857.859	198
857.91	188
857.961	192
858.012	180
858.063	192
858.113	192
858.164	192
858.215	174
858.266	196
858.316	180
858.367	182
858.418	166
858.469	184
858.519	200
858.57	178
858.621	180
858.672	192
858.722	184
858.773	186
858.824	194
858.875	184
858.925	180
858.976	178
859.027	182
859.078	180
859.128	176
859.179	178
859.23	170
859.281	168
859.331	186
859.382	164
859.433	196
859.483	194
859.534	188
859.585	174
859.636	196
859.686	186
859.737	186
859.788	192
859.839	176
859.889	180
859.94	184
859.991	178
860.042	188
860.092	174
860.143	182
860.194	176
860.245	168
860.295	184
860.346	178
860.397	192
860.447	178
860.498	182
860.549	176
860.6	174
860.65	186
860.701	184
860.752	164
860.802	164
860.853	180
860.904	178
860.955	188
861.005	184
861.056	178
861.107	172
861.158	170
861.208	170
861.259	172
861.31	174
861.36	164
861.411	182
861.462	168
861.513	182
861.563	162
861.614	186
861.665	180
861.715	180
861.766	162
861.817	182
861.868	172
861.918	184
861.969	170
862.02	180
862.07	176
862.121	172
862.172	166
862.223	190
862.273	182
862.324	184
862.375	162
862.425	182
862.476	184
862.527	168
862.577	178
862.628	174
862.679	174
862.73	158
862.78	166
862.831	164
862.882	178
862.932	176
862.983	178
863.034	166
863.084	154
863.135	158
863.186	160
863.237	166
863.287	166
863.338	154
863.389	166
863.439	180
863.49	172
863.541	162
863.591	180
863.642	162
863.693	176
863.744	162
863.794	172
863.845	180
863.896	170
863.946	152
863.997	182
864.048	158
864.098	184
864.149	154
864.2	158
864.25	168
864.301	164
864.352	158
864.402	188
864.453	160
864.504	164
864.555	146
864.605	170
864.656	156
864.707	158
864.757	172
864.808	156
864.859	160
864.909	172
864.96	164
865.011	174
865.061	176
865.112	154
865.163	162
865.213	170
865.264	164
865.315	162
865.365	168
865.416	166
865.467	162
865.517	156
865.568	160
865.619	156
865.669	166
865.72	158
865.771	170
865.821	168
865.872	160
865.923	150
865.973	162
866.024	150
866.075	170
866.125	154
866.176	172
866.227	152
866.277	170
866.328	152
866.379	164
866.429	158
866.48	168
866.531	160
866.581	160
866.632	168
866.683	170
866.733	164
866.784	160
866.835	170
866.885	152
866.936	144
866.987	160
867.037	170
867.088	156
867.138	166
867.189	154
867.24	158
867.29	158
867.341	162
867.392	144
867.442	164
867.493	152
867.544	158
867.594	162
867.645	162
867.696	156
867.746	156
867.797	156
867.848	144
867.898	160
867.949	154
867.999	164
868.05	146
868.101	156
868.151	150
868.202	160
868.253	158
868.303	150
868.354	164
868.405	146
868.455	156
868.506	144
868.556	162
868.607	150
868.658	144
868.708	142
868.759	156
868.81	170
868.86	148
868.911	140
868.961	156
869.012	160
869.063	158
869.113	146
869.164	154
869.215	160
869.265	160
869.316	156
869.367	148
869.417	160
869.468	148
869.518	160
869.569	168
869.62	128
869.67	150
869.721	146
869.771	144
869.822	166
869.873	144
869.923	140
869.974	164
870.025	140
870.075	144
870.126	142
870.176	150
870.227	152
870.278	138
870.328	144
870.379	148
870.43	152
870.48	134
870.531	156
870.581	152
870.632	158
870.683	150
870.733	146
870.784	152
870.834	148
870.885	148
870.936	144
870.986	152
871.037	144
871.087	128
871.138	142
871.189	154
871.239	134
871.29	146
871.34	152
871.391	148
871.442	150
871.492	142
871.543	146
871.593	136
871.644	150
871.695	150
871.745	146
871.796	148
871.846	136
871.897	148
871.948	146
871.998	144
872.049	140
872.099	142
872.15	150
872.201	142
872.251	124
872.302	148
872.352	152
872.403	140
872.453	134
872.504	146
872.555	140
872.605	140
872.656	140
872.706	154
872.757	142
872.808	124
872.858	140
872.909	130
872.959	140
873.01	140
873.06	142
873.111	156
873.162	134
873.212	142
873.263	140
873.313	132
873.364	130
873.415	136
873.465	138
873.516	148
873.566	136
873.617	150
873.667	128
873.718	134
873.769	140
873.819	132
873.87	142
873.92	142
873.971	140
874.021	132
874.072	138
874.123	142
874.173	138
874.224	122
874.274	142
874.325	130
874.375	134
874.426	132
874.477	138
874.527	138
874.578	136
874.628	132
874.679	130
874.729	130
874.78	128
874.83	132
874.881	134
874.932	138
874.982	136
875.033	128
875.083	130
875.134	136
875.184	128
875.235	128
875.285	140
875.336	136
875.387	130
875.437	138
875.488	130
875.538	132
875.589	132
875.639	138
875.69	132
875.74	126
875.791	124
875.841	120
875.892	136
875.943	124
875.993	130
876.044	138
876.094	132
876.145	126
876.195	132
876.246	130
876.296	126
876.347	136
876.397	116
876.448	136
876.499	136
876.549	118
876.6	122
876.65	132
876.701	130
876.751	134
876.802	136
876.852	142
876.903	136
876.953	138
877.004	118
877.054	142
877.105	128
877.155	136
877.206	126
877.257	140
877.307	136
877.358	130
877.408	122
877.459	138
877.509	128
877.56	116
877.61	118
877.661	138
877.711	132
877.762	132
877.812	130
877.863	134
877.913	136
877.964	120
878.014	118
878.065	120
878.115	140
878.166	124
878.216	120
878.267	136
878.318	132
878.368	126
878.419	122
878.469	132
878.52	126
878.57	120
878.621	116
878.671	124
878.722	120
878.772	124
878.823	128
878.873	112
878.924	132
878.974	116
879.025	124
879.075	132
879.126	122
879.176	118
879.227	122
879.277	134
879.328	122
879.378	120
879.429	130
879.479	126
879.53	120
879.58	128
879.631	134
879.681	118
879.732	124
879.782	118
879.833	124
879.883	120
879.934	116
879.984	112
880.035	132
880.085	116
880.136	120
880.186	108
880.237	128
880.287	136
880.338	118
880.388	116
880.439	126
880.489	122
880.54	106
880.59	122
880.641	116
880.691	128
880.742	112
880.792	110
880.842	116
880.893	102
880.943	110
880.994	126
881.044	110
881.095	130
881.145	114
881.196	126
881.246	130
881.297	124
881.347	110
881.398	124
881.448	124
881.499	126
881.549	112
881.6	112
881.65	128
881.701	124
881.751	126
881.802	130
881.852	122
881.902	122
881.953	118
882.003	114
882.054	116
882.104	124
882.155	108
882.205	128
882.256	106
882.306	116
882.357	108
882.407	126
882.458	130
882.508	120
882.559	106
882.609	130
882.659	126
882.71	110
882.76	104
882.811	122
882.861	120
882.912	108
882.962	116
883.013	122
883.063	118
883.114	108
883.164	110
883.214	108
883.265	126
883.315	110
883.366	120
883.416	116
883.467	112
883.517	112
883.568	126
883.618	110
883.669	116
883.719	106
883.769	112
883.82	116
883.87	114
883.921	104
883.971	110
884.022	112
884.072	114
884.123	106
884.173	112
884.223	112
884.274	118
884.324	114
884.375	120
884.425	112
884.476	112
884.526	110
884.577	108
884.627	116
884.677	110
884.728	102
884.778	118
884.829	116
884.879	106
884.93	100
884.98	110
885.03	118
885.081	102
885.131	114
885.182	110
885.232	118
885.283	104
885.333	122
885.383	114
885.434	112
885.484	102
885.535	98
885.585	108
885.635	100
885.686	106
885.736	116
885.787	104
885.837	110
885.888	108
885.938	106
885.988	108
886.039	108
886.089	104
886.14	118
886.19	94
886.241	110
886.291	98
886.341	106
886.392	98
886.442	106
886.493	102
886.543	118
886.593	108
886.644	108
886.694	104
886.745	106
886.795	114
886.845	106
886.896	100
886.946	106
886.997	104
887.047	96
887.097	104
887.148	102
887.198	108
887.249	98
887.299	108
887.349	112
887.4	112
887.45	106
887.501	114
887.551	98
887.602	106
887.652	106
887.702	106
887.753	110
887.803	100
887.853	98
887.904	104
887.954	110
888.005	114
888.055	90
888.105	108
888.156	108
888.206	94
888.257	90
888.307	104
888.357	96
888.408	106
888.458	94
888.509	106
888.559	102
888.609	100
888.66	102
888.71	110
888.76	102
888.811	108
888.861	92
888.912	104
888.962	108
889.012	102
889.063	100
889.113	110
889.163	110
889.214	102
889.264	98
889.315	106
889.365	106
889.415	92
889.466	100
889.516	98
889.566	90
889.617	86
889.667	102
889.718	104
889.768	100
889.818	100
889.869	100
889.919	94
889.969	110
890.02	94
890.07	102
890.12	94
890.171	92
890.221	94
890.272	104
890.322	94
890.372	108
890.423	84
890.473	100
890.523	108
890.574	100
890.624	94
890.674	100
890.725	96
890.775	82
890.826	100
890.876	106
890.926	98
890.977	96
891.027	94
891.077	94
891.128	102
891.178	94
891.228	92
891.279	100
891.329	94
891.379	98
891.43	88
891.48	92
891.53	94
891.581	84
891.631	94
891.681	106
891.732	92
891.782	96
891.832	96
891.883	104
891.933	104
891.983	92
892.034	86
892.084	98
892.134	98
892.185	94
892.235	96
892.286	90
892.336	94
892.386	82
892.437	98
892.487	100
892.537	90
892.587	86
892.638	102
892.688	94
892.738	94
892.789	88
892.839	94
892.889	98
892.94	92
892.99	88
893.04	102
893.091	80
893.141	94
893.191	78
893.242	86
893.292	90
893.342	88
893.393	96
893.443	102
893.493	90
893.544	86
893.594	90
893.644	90
893.695	100
893.745	86
893.795	80
893.846	94
893.896	78
893.946	80
893.996	88
894.047	96
894.097	94
894.147	84
894.198	102
894.248	94
894.298	96
894.349	82
894.399	94
894.449	94
894.5	86
894.55	86
894.6	96
894.65	88
894.701	86
894.751	80
894.801	96
894.852	86
894.902	88
894.952	86
895.003	92
895.053	92
895.103	90
895.153	92
895.204	98
895.254	90
895.304	96
895.355	80
895.405	90
895.455	86
895.505	86
895.556	86
895.606	98
895.656	82
895.707	90
895.757	84
895.807	84
895.858	88
895.908	76
895.958	92
896.008	94
896.059	84
896.109	80
896.159	90
896.21	82
896.26	94
896.31	78
896.36	86
896.411	96
896.461	84
896.511	80
896.561	96
896.612	84
896.662	88
896.712	76
896.763	92
896.813	76
896.863	82
896.913	74
896.964	92
897.014	90
897.064	78
897.115	76
897.165	78
897.215	90
897.265	86
897.316	84
897.366	96
897.416	82
897.466	82
897.517	72
897.567	92
897.617	86
897.667	78
897.718	90
897.768	78
897.818	80
897.868	74
897.919	96
897.969	90
898.019	100
898.069	80
898.12	88
898.17	78
898.22	90
898.27	72
898.321	84
898.371	84
898.421	82
898.471	70
898.522	86
898.572	90
898.622	78
898.672	88
898.723	82
898.773	84
898.823	84
898.873	68
898.924	88
898.974	82
899.024	74
899.074	82
899.125	82
899.175	80
899.225	80
899.275	68
899.326	74
899.376	80
899.426	78
899.476	82
899.527	92
899.577	82
899.627	78
899.677	74
899.728	82
899.778	84
899.828	76
899.878	76
899.928	80
899.979	78
