#Acq. time (s)=	3
#Accumulations=	2
#Range (nm)=	520...900
#Windows=	8
#Auto scanning=	Off
#Autofocus=	Off
#AutoExposure=	Off
#Spike filter=	Off
#Delay time (s)=	0
#Binning=	1
#Readout mode=	Signal
#DeNoise=	Off
#ICS correction=	Off
#Dark correction=	Off
#Inst. Process=	Off
#Detector temperature (°C)=	-59.98
#Instrument=	LabRAM HR Evol
#Detector=	Syncerity OE
#Objective=	x50_VIS
#Grating=	600 (500nm)
#ND Filter=	25%
#Laser=	514nm_Edge
#Hole=	199.981
#Range=	Visible
#StageXY=	Marzhauser
#StageZ=	Marzhauser
#X (µm)=	8994.7
#Y (µm)=	4749.1
#Z (µm)=	-261.7
#Full time(mm:ss)=	1:32
#Project=	
#Sample=	
#Site=	
#Title=	PL_M4_280424
#Remark=	
#Date=	06.05.2024 16:41
#Acquired=	06.05.2024 16:41:24
520.044	60
520.097	59
520.149	58
520.201	57
520.254	60
520.306	51
520.359	57
520.411	61
520.464	64
520.516	55
520.569	49
520.621	63
520.674	63
520.726	61
520.778	56
520.831	61
520.883	61
520.936	59
520.988	58
521.041	66
521.093	58
521.146	58
521.198	53
521.25	58
521.303	59
521.355	65
521.408	57
521.46	62
521.513	52
521.565	59
521.617	56
521.67	67
521.722	61
521.775	52
521.827	48
521.88	56
521.932	61
521.984	60
522.037	49
522.089	56
522.142	59
522.194	66
522.247	57
522.299	59
522.352	63
522.404	52
522.456	48
522.509	64
522.561	63
522.614	60
522.666	50
522.719	60
522.771	57
522.823	58
522.876	60
522.928	64
522.981	66
523.033	59
523.086	49
523.138	63
523.19	57
523.243	59
523.295	56
523.348	65
523.4	55
523.453	59
523.505	46
523.557	62
523.61	60
523.662	60
523.715	48
523.767	58
523.82	58
523.872	69
523.924	56
523.977	65
524.029	57
524.082	57
524.134	51
524.186	70
524.239	57
524.291	67
524.344	58
524.396	62
524.449	57
524.501	58
524.553	54
524.606	63
524.658	61
524.711	58
524.763	54
524.815	65
524.868	55
524.92	67
524.973	52
525.025	62
525.078	66
525.13	58
525.182	63
525.235	53
525.287	62
525.34	59
525.392	52
525.444	61
525.497	57
525.549	60
525.602	56
525.654	55
525.706	50
525.759	59
525.811	51
525.864	60
525.916	55
525.969	60
526.021	52
526.073	53
526.126	60
526.178	61
526.231	53
526.283	63
526.335	63
526.388	58
526.44	54
526.493	54
526.545	63
526.597	54
526.65	52
526.702	56
526.755	51
526.807	63
526.859	49
526.912	59
526.964	56
527.017	60
527.069	50
527.121	58
527.174	62
527.226	59
527.279	55
527.331	58
527.383	58
527.436	62
527.488	52
527.54	52
527.593	58
527.645	67
527.698	51
527.75	69
527.802	58
527.855	58
527.907	49
527.96	59
528.012	59
528.064	57
528.117	60
528.169	60
528.222	63
528.274	52
528.326	49
528.379	62
528.431	55
528.484	73
528.536	55
528.588	52
528.641	53
528.693	56
528.745	50
528.798	57
528.85	53
528.903	63
528.955	63
529.007	66
529.06	58
529.112	53
529.164	50
529.217	54
529.269	52
529.322	59
529.374	49
529.426	52
529.479	60
529.531	60
529.584	44
529.636	48
529.688	54
529.741	55
529.793	61
529.845	56
529.898	59
529.95	53
530.003	49
530.055	56
530.107	58
530.16	62
530.212	53
530.264	56
530.317	70
530.369	60
530.422	55
530.474	66
530.526	62
530.579	61
530.631	55
530.683	61
530.736	60
530.788	64
530.841	63
530.893	53
530.945	64
530.998	60
531.05	52
531.102	61
531.155	57
531.207	58
531.259	60
531.312	62
531.364	72
531.417	58
531.469	56
531.521	67
531.574	71
531.626	71
531.678	60
531.731	63
531.783	70
531.835	67
531.888	60
531.94	54
531.992	70
532.045	71
532.097	65
532.15	52
532.202	71
532.254	70
532.307	60
532.359	62
532.411	61
532.464	65
532.516	64
532.568	64
532.621	67
532.673	68
532.726	58
532.778	58
532.83	68
532.883	68
532.935	67
532.987	56
533.04	72
533.092	64
533.144	58
533.197	78
533.249	76
533.301	68
533.354	64
533.406	61
533.458	64
533.511	63
533.563	62
533.615	63
533.668	60
533.72	62
533.773	69
533.825	67
533.877	71
533.93	66
533.982	67
534.034	73
534.087	73
534.139	72
534.191	82
534.244	71
534.296	83
534.348	77
534.401	79
534.453	78
534.505	89
534.558	87
534.61	86
534.662	79
534.715	84
534.767	93
534.819	89
534.872	87
534.924	96
534.976	98
535.029	97
535.081	82
535.133	108
535.186	108
535.238	99
535.29	119
535.343	115
535.395	116
535.447	113
535.5	103
535.552	100
535.604	111
535.657	112
535.709	100
535.761	105
535.814	99
535.866	99
535.918	85
535.971	100
536.023	88
536.075	80
536.128	77
536.18	94
536.232	80
536.285	87
536.337	90
536.389	84
536.442	91
536.494	80
536.546	77
536.599	82
536.651	82
536.703	85
536.755	75
536.808	85
536.86	87
536.912	70
536.965	78
537.017	77
537.069	72
537.122	76
537.174	75
537.226	84
537.279	79
537.331	72
537.383	84
537.436	81
537.488	83
537.54	80
537.593	77
537.645	83
537.697	72
537.75	81
537.802	72
537.854	83
537.906	78
537.959	80
538.011	72
538.063	77
538.116	72
538.168	80
538.22	76
538.273	86
538.325	80
538.377	81
538.43	71
538.482	77
538.534	75
538.586	70
538.639	75
538.691	82
538.743	78
538.796	75
538.848	79
538.9	83
538.953	84
539.005	77
539.057	73
539.109	71
539.162	88
539.214	80
539.266	69
539.319	89
539.371	84
539.423	73
539.476	71
539.528	78
539.58	84
539.633	78
539.685	70
539.737	83
539.789	73
539.842	71
539.894	75
539.946	78
539.999	87
540.051	79
540.103	72
540.155	76
540.208	78
540.26	82
540.312	81
540.365	78
540.417	84
540.469	85
540.521	76
540.574	85
540.626	84
540.678	81
540.731	71
540.783	90
540.835	95
540.888	98
540.94	88
540.992	89
541.044	99
541.097	89
541.149	74
541.201	81
541.254	79
541.306	87
541.358	78
541.41	81
541.463	92
541.515	97
541.567	93
541.62	87
541.672	87
541.724	88
541.776	84
541.829	94
541.881	78
541.933	84
541.985	78
542.038	85
542.09	82
542.142	94
542.195	84
542.247	94
542.299	99
542.351	83
542.404	90
542.456	86
542.508	89
542.56	93
542.613	86
542.665	85
542.717	92
542.77	91
542.822	95
542.874	96
542.926	94
542.979	94
543.031	83
543.083	88
543.135	89
543.188	88
543.24	77
543.292	86
543.344	90
543.397	91
543.449	92
543.501	101
543.554	106
543.606	100
543.658	91
543.71	91
543.763	99
543.815	94
543.867	102
543.919	94
543.972	91
544.024	101
544.076	94
544.128	104
544.181	110
544.233	98
544.285	98
544.337	97
544.39	102
544.442	101
544.494	96
544.547	104
544.599	98
544.651	97
544.703	101
544.755	105
544.808	103
544.86	112
544.912	93
544.965	97
545.017	104
545.069	100
545.121	108
545.174	104
545.226	114
545.278	104
545.33	103
545.383	104
545.435	103
545.487	102
545.539	106
545.591	104
545.644	113
545.696	108
545.748	104
545.8	112
545.853	113
545.905	107
545.957	106
546.009	107
546.062	114
546.114	104
546.166	115
546.218	100
546.271	118
546.323	111
546.375	106
546.427	120
546.48	121
546.532	125
546.584	109
546.636	109
546.689	116
546.741	114
546.793	120
546.845	114
546.898	124
546.95	114
547.002	110
547.054	119
547.106	121
547.159	113
547.211	126
547.263	117
547.315	123
547.368	125
547.42	122
547.472	122
547.524	121
547.577	121
547.629	120
547.681	127
547.733	133
547.785	126
547.838	139
547.89	114
547.942	135
547.994	132
548.047	128
548.099	127
548.151	133
548.203	134
548.255	129
548.308	119
548.36	134
548.412	128
548.464	127
548.517	137
548.569	140
548.621	135
548.673	126
548.725	125
548.778	135
548.83	135
548.882	128
548.934	139
548.987	137
549.039	145
549.091	136
549.143	130
549.195	140
549.248	132
549.3	138
549.352	143
549.404	144
549.456	140
549.509	145
549.561	141
549.613	141
549.665	147
549.718	146
549.77	138
549.822	153
549.874	154
549.926	152
549.979	141
550.031	149
550.083	151
550.135	155
550.187	150
550.24	154
550.292	157
550.344	167
550.396	152
550.448	177
550.501	169
550.553	150
550.605	160
550.657	156
550.709	180
550.762	176
550.814	170
550.866	171
550.918	167
550.97	171
551.023	171
551.075	178
551.127	191
551.179	192
551.231	179
551.284	186
551.336	200
551.388	198
551.44	188
551.492	211
551.545	215
551.597	221
551.649	217
551.701	221
551.753	236
551.806	248
551.858	241
551.91	270
551.962	279
552.014	302
552.067	326
552.119	336
552.171	386
552.223	430
552.275	466
552.327	592
552.38	801
552.432	1193
552.484	2621
552.536	5248
552.588	8708
552.641	14760
552.693	26070
552.745	36015
552.797	22434
552.849	9157
552.901	3063
552.954	1452
553.006	891
553.058	693
553.11	538
553.162	437
553.215	396
553.267	334
553.319	320
553.371	294
553.423	289
553.475	261
553.528	264
553.58	243
553.632	255
553.684	230
553.736	226
553.788	227
553.841	235
553.893	225
553.945	199
553.997	200
554.049	213
554.102	210
554.154	209
554.206	215
554.258	207
554.31	210
554.362	207
554.414	210
554.467	207
554.519	214
554.571	208
554.623	201
554.675	205
554.727	210
554.78	192
554.832	207
554.884	194
554.936	215
554.988	207
555.04	203
555.093	213
555.145	202
555.197	206
555.249	208
555.301	199
555.353	199
555.406	207
555.458	197
555.51	217
555.562	211
555.614	214
555.666	210
555.719	198
555.771	206
555.823	206
555.875	220
555.927	217
555.979	213
556.031	201
556.084	197
556.136	206
556.188	206
556.24	214
556.292	220
556.344	219
556.396	217
556.449	221
556.501	217
556.553	208
556.605	227
556.657	228
556.709	221
556.762	222
556.814	222
556.866	213
556.918	225
556.97	233
557.022	230
557.074	228
557.127	229
557.179	222
557.231	237
557.283	225
557.335	236
557.387	238
557.439	232
557.492	240
557.544	243
557.596	227
557.648	236
557.7	218
557.752	229
557.804	238
557.856	248
557.909	242
557.961	242
558.013	247
558.065	247
558.117	253
558.169	249
558.221	250
558.273	253
558.326	235
558.378	238
558.43	243
558.482	259
558.534	243
558.586	247
558.638	257
558.691	255
558.743	249
558.795	242
558.847	251
558.899	241
558.951	246
559.003	249
559.055	255
559.108	245
559.16	238
559.212	241
559.264	277
559.316	266
559.368	258
559.42	239
559.472	259
559.525	249
559.577	257
559.629	249
559.681	258
559.733	262
559.785	277
559.837	263
559.889	256
559.941	276
559.994	248
560.046	274
560.098	275
560.15	271
560.202	259
560.254	273
560.306	270
560.358	270
560.41	296
560.463	263
560.515	265
560.567	290
560.619	274
560.671	280
560.723	281
560.775	281
560.827	289
560.879	281
560.932	285
560.984	304
561.036	291
561.088	290
561.14	286
561.192	289
561.244	271
561.296	296
561.348	296
561.4	294
561.453	295
561.505	296
561.557	310
561.609	299
561.661	302
561.713	284
561.765	309
561.817	324
561.869	300
561.921	295
561.974	299
562.026	305
562.078	329
562.13	307
562.182	321
562.234	303
562.286	320
562.338	324
562.39	322
562.442	321
562.494	325
562.547	328
562.599	321
562.651	350
562.703	347
562.755	325
562.807	334
562.859	333
562.911	328
562.963	329
563.015	346
563.067	343
563.12	337
563.172	311
563.224	332
563.276	349
563.328	345
563.38	354
563.432	348
563.484	359
563.536	367
563.588	362
563.64	373
563.692	359
563.744	366
563.797	356
563.849	382
563.901	376
563.953	384
564.005	376
564.057	401
564.109	391
564.161	391
564.213	404
564.265	413
564.317	411
564.369	395
564.421	395
564.474	390
564.526	407
564.578	401
564.63	404
564.682	403
564.734	390
564.786	383
564.838	381
564.89	405
564.942	387
564.994	386
565.046	395
565.098	406
565.15	401
565.202	386
565.255	384
565.307	397
565.359	400
565.411	392
565.463	386
565.515	387
565.567	394
565.619	410
565.671	383
565.723	385
565.775	409
565.827	405
565.879	429
565.931	407
565.983	416
566.035	417
566.087	414
566.139	438
566.192	405
566.244	414
566.296	402
566.348	418
566.4	432
566.452	435
566.504	409
566.556	447
566.608	432
566.66	435
566.712	432
566.764	416
566.816	425
566.868	427
566.92	438
566.972	447
567.024	446
567.076	435
567.128	436
567.18	448
567.232	441
567.285	465
567.337	436
567.389	445
567.441	454
567.493	444
567.545	445
567.597	465
567.649	458
567.701	460
567.753	458
567.805	465
567.857	473
567.909	476
567.961	456
568.013	468
568.065	460
568.117	467.91
568.169	456.127
568.221	468.668
568.273	470.013
568.325	474.71
568.377	479.513
568.429	471.126
568.481	478.049
568.533	483.181
568.585	486.627
568.637	491.108
568.69	497.566
568.742	482.221
568.794	495.705
568.846	502.602
568.898	502.166
568.95	509.045
569.002	494.963
569.054	509.715
569.106	495.437
569.158	501.652
569.21	498.972
569.262	521.67
569.314	508.139
569.366	504.161
569.418	496.078
569.47	525.11
569.522	523.251
569.574	506.343
569.626	521.259
569.678	535.65
569.73	522.594
569.782	530.414
569.834	529.681
569.886	526.092
569.938	533.999
569.99	547.771
570.042	547.462
570.094	542.479
570.146	544.153
570.198	540.296
570.25	540.056
570.302	565.484
570.354	562.83
570.406	541.901
570.458	558.5
570.51	559.756
570.562	573.837
570.614	568.896
570.666	574.146
570.718	579.613
570.77	578.551
570.822	586.692
570.874	585.455
570.926	583.844
570.978	597.954
571.03	605.312
571.082	594.411
571.134	598.082
571.186	606.743
571.238	616.398
571.29	610.522
571.342	623.941
571.394	638.767
571.446	631.513
571.498	635.277
571.55	655.169
571.602	657.715
571.654	658.414
571.706	648.313
571.758	676.422
571.81	678.24
571.862	665.401
571.914	686.565
571.966	698.834
572.018	691.65
572.07	694.263
572.122	711.226
572.174	715.237
572.226	727.269
572.278	725.787
572.33	728.983
572.382	740.168
572.434	759.489
572.486	764.602
572.538	757.865
572.59	768.611
572.642	778.902
572.694	787.286
572.746	793.063
572.798	791.937
572.85	807.2
572.902	813.15
572.954	820.119
573.006	844.913
573.058	841.318
573.11	847.657
573.162	851.83
573.214	849.044
573.266	874.074
573.312	871
573.364	915
573.416	929
573.469	947
573.521	928
573.573	954
573.625	1001
573.677	985
573.73	1013
573.782	998
573.834	1054
573.886	1033
573.938	1100
573.991	1091
574.043	1062
574.095	1073
574.147	1095
574.199	1135
574.252	1154
574.304	1186
574.356	1185
574.408	1184
574.46	1270
574.513	1295
574.565	1277
574.617	1294
574.669	1309
574.721	1330
574.774	1367
574.826	1395
574.878	1410
574.93	1426
574.982	1466
575.035	1478
575.087	1531
575.139	1523
575.191	1575
575.243	1533
575.296	1593
575.348	1618
575.4	1622
575.452	1688
575.504	1694
575.556	1681
575.609	1721
575.661	1704
575.713	1743
575.765	1737
575.817	1733
575.87	1722
575.922	1789
575.974	1774
576.026	1774
576.078	1774
576.131	1761
576.183	1762
576.235	1809
576.287	1746
576.339	1768
576.391	1735
576.444	1704
576.496	1705
576.548	1703
576.6	1710
576.652	1674
576.705	1692
576.757	1618
576.809	1612
576.861	1638
576.913	1586
576.965	1577
577.018	1591
577.07	1515
577.122	1519
577.174	1527
577.226	1508
577.279	1456
577.331	1440
577.383	1423
577.435	1367
577.487	1413
577.539	1398
577.592	1372
577.644	1347
577.696	1379
577.748	1330
577.8	1301
577.852	1299
577.905	1323
577.957	1268
578.009	1294
578.061	1254
578.113	1268
578.165	1240
578.218	1236
578.27	1196
578.322	1193
578.374	1188
578.426	1183
578.478	1190
578.531	1174
578.583	1154
578.635	1167
578.687	1158
578.739	1168
578.791	1126
578.844	1156
578.896	1134
578.948	1155
579	1151
579.052	1128
579.104	1109
579.157	1110
579.209	1080
579.261	1088
579.313	1117
579.365	1103
579.417	1097
579.47	1090
579.522	1107
579.574	1076
579.626	1085
579.678	1097
579.73	1095
579.782	1120
579.835	1116
579.887	1125
579.939	1107
579.991	1135
580.043	1093
580.095	1112
580.148	1112
580.2	1100
580.252	1098
580.304	1117
580.356	1109
580.408	1100
580.46	1083
580.513	1108
580.565	1074
580.617	1114
580.669	1089
580.721	1123
580.773	1110
580.826	1117
580.878	1098
580.93	1087
580.982	1117
581.034	1116
581.086	1103
581.138	1083
581.191	1128
581.243	1120
581.295	1102
581.347	1129
581.399	1137
581.451	1132
581.503	1133
581.556	1103
581.608	1141
581.66	1170
581.712	1166
581.764	1112
581.816	1148
581.868	1159
581.92	1132
581.973	1155
582.025	1171
582.077	1119
582.129	1145
582.181	1146
582.233	1174
582.285	1158
582.338	1160
582.39	1194
582.442	1166
582.494	1163
582.546	1178
582.598	1169
582.65	1198
582.703	1181
582.755	1177
582.807	1195
582.859	1182
582.911	1182
582.963	1202
583.015	1206
583.067	1209
583.12	1236
583.172	1205
583.224	1204
583.276	1204
583.328	1228
583.38	1227
583.432	1226
583.484	1240
583.537	1225
583.589	1252
583.641	1243
583.693	1243
583.745	1250
583.797	1261
583.849	1261
583.901	1283
583.953	1250
584.006	1271
584.058	1278
584.11	1277
584.162	1291
584.214	1299
584.266	1281
584.318	1330
584.37	1316
584.423	1300
584.475	1328
584.527	1346
584.579	1320
584.631	1330
584.683	1337
584.735	1344
584.787	1358
584.839	1356
584.892	1331
584.944	1355
584.996	1400
585.048	1373
585.1	1383
585.152	1404
585.204	1390
585.256	1393
585.308	1415
585.361	1405
585.413	1405
585.465	1431
585.517	1410
585.569	1420
585.621	1378
585.673	1439
585.725	1447
585.777	1469
585.83	1462
585.882	1468
585.934	1448
585.986	1447
586.038	1460
586.09	1432
586.142	1476
586.194	1481
586.246	1454
586.298	1502
586.351	1468
586.403	1469
586.455	1466
586.507	1497
586.559	1488
586.611	1489
586.663	1491
586.715	1491
586.767	1506
586.819	1513
586.872	1494
586.924	1504
586.976	1488
587.028	1537
587.08	1523
587.132	1524
587.184	1540
587.236	1541
587.288	1538
587.34	1545
587.392	1537
587.445	1498
587.497	1547
587.549	1534
587.601	1537
587.653	1541
587.705	1518
587.757	1547
587.809	1533
587.861	1546
587.913	1579
587.965	1520
588.018	1551
588.07	1578
588.122	1567
588.174	1556
588.226	1597
588.278	1538
588.33	1564
588.382	1573
588.434	1570
588.486	1566
588.538	1602
588.59	1572
588.642	1572
588.695	1586
588.747	1588
588.799	1582
588.851	1587
588.903	1616
588.955	1580
589.007	1590
589.059	1612
589.111	1596
589.163	1620
589.215	1619
589.267	1609
589.319	1613
589.372	1664
589.424	1693
589.476	1641
589.528	1627
589.58	1679
589.632	1645
589.684	1612
589.736	1659
589.788	1631
589.84	1637
589.892	1644
589.944	1617
589.996	1623
590.048	1655
590.101	1614
590.153	1628
590.205	1608
590.257	1600
590.309	1613
590.361	1655
590.413	1666
590.465	1636
590.517	1637
590.569	1623
590.621	1615
590.673	1590
590.725	1594
590.777	1612
590.829	1578
590.881	1666
590.933	1600
590.986	1613
591.038	1613
591.09	1625
591.142	1602
591.194	1600
591.246	1587
591.298	1621
591.35	1604
591.402	1615
591.454	1601
591.506	1593
591.558	1579
591.61	1611
591.662	1567
591.714	1543
591.766	1591
591.818	1580
591.87	1569
591.923	1531
591.975	1572
592.027	1565
592.079	1592
592.131	1578
592.183	1553
592.235	1563
592.287	1542
592.339	1512
592.391	1571
592.443	1534
592.495	1555
592.547	1559
592.599	1551
592.651	1550
592.703	1583
592.755	1573
592.807	1565
592.859	1527
592.911	1558
592.963	1556
593.015	1560
593.068	1567
593.12	1548
593.172	1572
593.224	1553
593.276	1537
593.328	1558
593.38	1553
593.432	1554
593.484	1575
593.536	1558
593.588	1565
593.64	1552
593.692	1531
593.744	1554
593.796	1562
593.848	1547
593.9	1564
593.952	1573
594.004	1598
594.056	1614
594.108	1568
594.16	1560
594.212	1580
594.264	1552
594.316	1612
594.368	1557
594.42	1583
594.472	1589
594.524	1594
594.576	1577
594.628	1612
594.68	1605
594.732	1557
594.784	1570
594.837	1555
594.889	1601
594.941	1609
594.993	1579
595.045	1593
595.097	1592
595.149	1658
595.201	1651
595.253	1588
595.305	1629
595.357	1629
595.409	1646
595.461	1657
595.513	1652
595.565	1655
595.617	1642
595.669	1662
595.721	1686
595.773	1633
595.825	1667
595.877	1635
595.929	1665
595.981	1664
596.033	1669
596.085	1672
596.137	1654
596.189	1663
596.241	1690
596.293	1716
596.345	1684
596.397	1697
596.449	1706
596.501	1720
596.553	1713
596.605	1718
596.657	1702
596.709	1737
596.761	1771
596.813	1718
596.865	1747
596.917	1740
596.969	1733
597.021	1694
597.073	1743
597.125	1745
597.177	1736
597.229	1736
597.281	1724
597.333	1744
597.385	1753
597.437	1722
597.489	1752
597.541	1742
597.593	1742
597.645	1722
597.697	1764
597.749	1750
597.801	1780
597.853	1730
597.905	1722
597.957	1735
598.009	1761
598.061	1742
598.113	1773
598.165	1772
598.217	1762
598.269	1745
598.321	1764
598.373	1756
598.425	1751
598.477	1771
598.529	1779
598.581	1772
598.633	1770
598.685	1801
598.737	1770
598.789	1754
598.841	1815
598.893	1766
598.945	1791
598.997	1747
599.049	1779
599.101	1773
599.153	1749
599.205	1762
599.257	1801
599.309	1786
599.361	1782
599.413	1781
599.465	1771
599.517	1782
599.569	1768
599.62	1815
599.672	1759
599.724	1799
599.776	1809
599.828	1783
599.88	1817
599.932	1759
599.984	1796
600.036	1796
600.088	1760
600.14	1803
600.192	1748
600.244	1805
600.296	1774
600.348	1797
600.4	1808
600.452	1808
600.504	1811
600.556	1803
600.608	1775
600.66	1790
600.712	1763
600.764	1814
600.816	1821
600.868	1795
600.92	1828
600.972	1795
601.024	1785
601.076	1796
601.128	1815
601.18	1822
601.232	1810
601.284	1809
601.335	1817
601.387	1819
601.439	1786
601.491	1798
601.543	1822
601.595	1793
601.647	1807
601.699	1789
601.751	1829
601.803	1837
601.855	1858
601.907	1803
601.959	1797
602.011	1849
602.063	1824
602.115	1832
602.167	1808
602.219	1804
602.271	1824
602.323	1820
602.375	1850
602.427	1841
602.478	1866
602.53	1859
602.582	1832
602.634	1813
602.686	1831
602.738	1798
602.79	1819
602.842	1853
602.894	1819
602.946	1796
602.998	1837
603.05	1852
603.102	1851
603.154	1841
603.206	1845
603.258	1832
603.31	1866
603.362	1849
603.413	1811
603.465	1834
603.517	1845
603.569	1884
603.621	1842
603.673	1846
603.725	1855
603.777	1833
603.829	1803
603.881	1847
603.933	1891
603.985	1899
604.037	1849
604.089	1893
604.141	1863
604.193	1869
604.244	1859
604.296	1853
604.348	1890
604.4	1894
604.452	1895
604.504	1865
604.556	1875
604.608	1882
604.66	1862
604.712	1859
604.764	1893
604.816	1884
604.868	1900
604.92	1903
604.971	1888
605.023	1861
605.075	1889
605.127	1915
605.179	1874
605.231	1862
605.283	1884
605.335	1866
605.387	1904
605.439	1906
605.491	1879
605.543	1904
605.594	1887
605.646	1877
605.698	1894
605.75	1865
605.802	1884
605.854	1883
605.906	1882
605.958	1875
606.01	1863
606.062	1925
606.114	1857
606.166	1885
606.217	1875
606.269	1871
606.321	1911
606.373	1881
606.425	1890
606.477	1856
606.529	1890
606.581	1886
606.633	1919
606.685	1862
606.737	1879
606.789	1870
606.84	1902
606.892	1893
606.944	1889
606.996	1885
607.048	1913
607.1	1931
607.152	1906
607.204	1883
607.256	1849
607.308	1950
607.359	1886
607.411	1853
607.463	1910
607.515	1862
607.567	1889
607.619	1902
607.671	1884
607.723	1930
607.775	1882
607.827	1911
607.878	1912
607.93	1940
607.982	1947
608.034	1903
608.086	1903
608.138	1956
608.19	1931
608.242	1939
608.294	1915
608.345	1946
608.397	1935
608.449	1922
608.501	1911
608.553	1969
608.605	1956
608.657	1949
608.709	1933
608.761	1914
608.812	1981
608.864	1942
608.916	1977
608.968	1948
609.02	1947
609.072	1972
609.124	1927
609.176	1967
609.228	1995
609.279	1964
609.331	1965
609.383	1973
609.435	1984
609.487	1955
609.539	1972
609.591	1974
609.643	1940
609.694	1969
609.746	1997
609.798	2028
609.85	1997
609.902	2008
609.954	2020
610.006	2028
610.058	2032
610.109	1989
610.161	2009
610.213	1990
610.265	2029
610.317	1972
610.369	2051
610.421	1984
610.473	2025
610.524	2031
610.576	2041
610.628	2032
610.68	2039
610.732	2010
610.784	2037
610.836	2028
610.887	2058
610.939	2023
610.991	1985
611.043	2055
611.095	2011
611.147	2057
611.199	2038
611.25	2023
611.302	2035
611.354	2064
611.406	2034
611.458	2043
611.51	2055
611.562	2077
611.614	2059
611.665	2049
611.717	2063
611.769	2036
611.821	2078
611.873	2056
611.925	2079
611.977	2084
612.028	2078
612.08	2063
612.132	2108
612.184	2072
612.236	2066
612.288	2077
612.339	2087
612.391	2099
612.443	2085
612.495	2099
612.547	2092
612.599	2065
612.651	2120
612.702	2081
612.754	2075
612.806	2112
612.858	2111
612.91	2146
612.962	2115
613.013	2138
613.065	2130
613.117	2142
613.169	2181
613.221	2144
613.273	2147
613.325	2162
613.376	2153
613.428	2141
613.48	2116
613.532	2159
613.584	2153
613.635	2168
613.687	2204
613.739	2159
613.791	2182
613.843	2193
613.895	2209
613.947	2195
613.998	2180
614.05	2192
614.102	2164
614.154	2192
614.206	2220
614.258	2214
614.309	2236
614.361	2251
614.413	2231
614.465	2266
614.517	2187
614.568	2253
614.62	2219
614.672	2243
614.724	2211
614.776	2209
614.828	2276
614.879	2258
614.931	2290
614.983	2252
615.035	2246
615.087	2327
615.139	2263
615.19	2247
615.242	2286
615.294	2309
615.346	2296
615.398	2283
615.449	2268
615.501	2276
615.553	2302
615.605	2319
615.657	2295
615.709	2333
615.76	2290
615.812	2336
615.864	2296
615.916	2304
615.968	2330
616.019	2326.44
616.071	2323.26
616.123	2343.42
616.175	2360.21
616.227	2343.59
616.278	2387.8
616.33	2348.35
616.382	2312.46
616.434	2321.92
616.486	2353.9
616.537	2343.67
616.589	2354.72
616.641	2314.69
616.693	2373.13
616.745	2386.34
616.797	2343.84
616.848	2376.46
616.9	2384.49
616.952	2370.41
617.004	2345.19
617.056	2378.68
617.107	2381.87
617.159	2380.41
617.211	2377.16
617.263	2383.06
617.315	2386.91
617.366	2397.84
617.418	2384.71
617.47	2381.5
617.522	2398.91
617.573	2407.99
617.625	2364.86
617.677	2395.11
617.729	2409.37
617.781	2438.47
617.832	2377.78
617.884	2408.93
617.936	2409.84
617.988	2388.99
618.04	2406.98
618.091	2407.54
618.143	2437.1
618.195	2444.87
618.247	2416.17
618.299	2441.55
618.35	2446.45
618.402	2439.42
618.454	2424.54
618.506	2438.29
618.557	2435.35
618.609	2467.91
618.661	2424.32
618.713	2448.85
618.765	2457.91
618.816	2492
618.868	2455.15
618.92	2452.76
618.972	2439.05
619.023	2433.93
619.075	2478.83
619.127	2433.05
619.179	2444.35
619.231	2451.57
619.282	2483.7
619.334	2496.39
619.386	2466.62
619.438	2459.08
619.49	2485.25
619.541	2475.15
619.593	2467.88
619.645	2468.63
619.697	2514.77
619.748	2500.35
619.8	2493.9
619.852	2512.13
619.904	2498.51
619.955	2530.3
620.007	2495.61
620.059	2536.85
620.111	2543.53
620.162	2531.54
620.214	2494.34
620.266	2495.22
620.318	2497.75
620.37	2525.87
620.421	2524.58
620.473	2516.93
620.525	2525.47
620.577	2522.53
620.628	2539.26
620.68	2544.96
620.732	2549.75
620.784	2549.17
620.835	2529.12
620.887	2508.44
620.939	2541.8
620.991	2538.85
621.042	2523.63
621.094	2535.77
621.146	2540.88
621.198	2541.54
621.249	2531.41
621.269	2525
621.321	2503
621.373	2605
621.425	2527
621.477	2533
621.529	2525
621.581	2544
621.633	2541
621.685	2550
621.737	2557
621.789	2544
621.841	2513
621.893	2572
621.945	2499
621.997	2567
622.049	2570
622.101	2538
622.153	2507
622.205	2527
622.257	2554
622.309	2556
622.361	2578
622.413	2542
622.465	2531
622.517	2578
622.569	2536
622.621	2506
622.673	2547
622.725	2569
622.776	2562
622.828	2586
622.88	2571
622.932	2579
622.984	2545
623.036	2591
623.088	2564
623.14	2650
623.192	2593
623.244	2606
623.296	2604
623.348	2585
623.4	2602
623.452	2609
623.504	2572
623.556	2604
623.608	2606
623.66	2631
623.712	2612
623.764	2623
623.816	2604
623.868	2646
623.92	2563
623.972	2594
624.024	2609
624.076	2624
624.128	2618
624.18	2634
624.232	2610
624.284	2596
624.336	2638
624.388	2602
624.44	2629
624.492	2638
624.544	2640
624.596	2621
624.648	2696
624.699	2595
624.751	2645
624.803	2625
624.855	2637
624.907	2657
624.959	2647
625.011	2629
625.063	2657
625.115	2676
625.167	2616
625.219	2624
625.271	2674
625.323	2691
625.375	2639
625.427	2689
625.479	2680
625.531	2669
625.583	2707
625.635	2661
625.687	2744
625.739	2658
625.791	2677
625.843	2681
625.895	2649
625.946	2713
625.998	2721
626.05	2715
626.102	2696
626.154	2690
626.206	2742
626.258	2715
626.31	2714
626.362	2704
626.414	2732
626.466	2761
626.518	2721
626.57	2738
626.622	2717
626.674	2705
626.726	2721
626.778	2722
626.83	2739
626.882	2732
626.934	2718
626.985	2720
627.037	2770
627.089	2716
627.141	2727
627.193	2749
627.245	2783
627.297	2748
627.349	2753
627.401	2775
627.453	2807
627.505	2747
627.557	2807
627.609	2828
627.661	2799
627.713	2792
627.765	2756
627.817	2810
627.868	2801
627.92	2800
627.972	2823
628.024	2774
628.076	2818
628.128	2818
628.18	2774
628.232	2839
628.284	2790
628.336	2820
628.388	2782
628.44	2795
628.492	2858
628.544	2855
628.596	2819
628.647	2821
628.699	2835
628.751	2829
628.803	2813
628.855	2849
628.907	2888
628.959	2823
629.011	2848
629.063	2841
629.115	2856
629.167	2851
629.219	2916
629.271	2884
629.322	2898
629.374	2852
629.426	2911
629.478	2882
629.53	2857
629.582	2930
629.634	2942
629.686	2914
629.738	2876
629.79	2890
629.842	2901
629.894	2910
629.945	2934
629.997	2927
630.049	2963
630.101	2949
630.153	2923
630.205	2958
630.257	2907
630.309	2926
630.361	2924
630.413	2937
630.465	2963
630.517	2935
630.568	2953
630.62	2996
630.672	2980
630.724	2987
630.776	2954
630.828	2948
630.88	2996
630.932	2937
630.984	3004
631.036	2978
631.088	2988
631.14	3004
631.191	2982
631.243	2984
631.295	3015
631.347	3004
631.399	3042
631.451	2956
631.503	3063
631.555	3038
631.607	3066
631.659	3008
631.71	3065
631.762	3073
631.814	3033
631.866	3052
631.918	3091
631.97	3032
632.022	3030
632.074	3025
632.126	3032
632.178	3105
632.229	3065
632.281	3123
632.333	3085
632.385	3126
632.437	3102
632.489	3130
632.541	3103
632.593	3131
632.645	3113
632.696	3110
632.748	3162
632.8	3154
632.852	3153
632.904	3127
632.956	3148
633.008	3093
633.06	3195
633.112	3127
633.164	3152
633.215	3176
633.267	3208
633.319	3136
633.371	3203
633.423	3153
633.475	3200
633.527	3231
633.579	3171
633.63	3230
633.682	3212
633.734	3220
633.786	3213
633.838	3208
633.89	3268
633.942	3272
633.994	3262
634.046	3269
634.097	3282
634.149	3282
634.201	3267
634.253	3329
634.305	3329
634.357	3285
634.409	3348
634.461	3266
634.512	3336
634.564	3389
634.616	3335
634.668	3353
634.72	3320
634.772	3397
634.824	3368
634.876	3377
634.927	3384
634.979	3399
635.031	3351
635.083	3426
635.135	3434
635.187	3439
635.239	3439
635.291	3446
635.342	3407
635.394	3470
635.446	3441
635.498	3474
635.55	3539
635.602	3446
635.654	3500
635.705	3525
635.757	3527
635.809	3580
635.861	3539
635.913	3599
635.965	3624
636.017	3686
636.068	3679
636.12	3651
636.172	3666
636.224	3709
636.276	3701
636.328	3737
636.38	3723
636.431	3760
636.483	3771
636.535	3837
636.587	3821
636.639	3888
636.691	5153
636.743	3939
636.794	4024
636.846	4031
636.898	4030
636.95	4076
637.002	4032
637.054	4148
637.106	4243
637.157	4214
637.209	4279
637.261	4286
637.313	4332
637.365	4361
637.417	4396
637.469	4460
637.52	4475
637.572	4475
637.624	4617
637.676	4615
637.728	4705
637.78	4699
637.831	4737
637.883	4806
637.935	4853
637.987	4851
638.039	5040
638.091	5028
638.143	5005
638.194	5035
638.246	5051
638.298	5055
638.35	4973
638.402	5049
638.454	5016
638.505	5043
638.557	5038
638.609	5049
638.661	5043
638.713	5017
638.765	4993
638.816	4947
638.868	4952
638.92	4984
638.972	4962
639.024	4913
639.076	4875
639.127	4824
639.179	4754
639.231	4829
639.283	4764
639.335	4713
639.387	4755
639.438	4675
639.49	4593
639.542	4595
639.594	4637
639.646	4567
639.698	4571
639.749	4541
639.801	4500
639.853	4451
639.905	4475
639.957	4450
640.008	4430
640.06	4444
640.112	4404
640.164	4369
640.216	4341
640.268	4351
640.319	4324
640.371	4334
640.423	4251
640.475	4301
640.527	4262
640.578	4290
640.63	4211
640.682	4284
640.734	4296
640.786	4212
640.838	4198
640.889	4198
640.941	4201
640.993	4106
641.045	4202
641.097	4133
641.148	4146
641.2	4199
641.252	4110
641.304	4189
641.356	4202
641.408	4111
641.459	4110
641.511	4131
641.563	4115
641.615	4132
641.667	4103
641.718	4144
641.77	4112
641.822	4109
641.874	4103
641.926	4104
641.977	4109
642.029	4118
642.081	4115
642.133	4137
642.185	4075
642.236	4163
642.288	4085
642.34	4097
642.392	4113
642.444	4110
642.495	4035
642.547	4052
642.599	4125
642.651	4016
642.703	4139
642.754	4136
642.806	4097
642.858	4141
642.91	4103
642.962	4135
643.013	4108
643.065	4087
643.117	4135
643.169	4148
643.221	4118
643.272	4168
643.324	4082
643.376	4122
643.428	4094
643.479	4155
643.531	4118
643.583	4180
643.635	4099
643.687	4180
643.738	4139
643.79	4127
643.842	4141
643.894	4138
643.946	4177
643.997	4173
644.049	4205
644.101	4134
644.153	4152
644.205	4111
644.256	4114
644.308	4185
644.36	4212
644.412	4195
644.463	4179
644.515	4184
644.567	4249
644.619	4152
644.671	4160
644.722	4232
644.774	4228
644.826	4188
644.878	4243
644.929	4214
644.981	4189
645.033	4219
645.085	4196
645.136	4151
645.188	4217
645.24	4197
645.292	4231
645.344	4319
645.395	4211
645.447	4265
645.499	4221
645.551	4224
645.602	4270
645.654	4187
645.706	4173
645.758	4286
645.81	4203
645.861	4293
645.913	4229
645.965	4232
646.017	4255
646.068	4221
646.12	4316
646.172	4280
646.224	4270
646.275	4247
646.327	4282
646.379	4333
646.431	4267
646.482	4356
646.534	4308
646.586	4302
646.638	4325
646.689	4260
646.741	4297
646.793	4332
646.845	4301
646.896	4339
646.948	4250
647	4408
647.052	4368
647.104	4336
647.155	4281
647.207	4379
647.259	4362
647.31	4344
647.362	4355
647.414	4344
647.466	4346
647.518	4355
647.569	4419
647.621	4383
647.673	4409
647.724	4378
647.776	4355
647.828	4392
647.88	4378
647.931	4381
647.983	4404
648.035	4356
648.087	4405
648.138	4351
648.19	4397
648.242	4412
648.294	4393
648.345	4421
648.397	4419
648.449	4479
648.501	4494
648.552	4424
648.604	4452
648.656	4447
648.708	4510
648.759	4474
648.811	4513
648.863	4504
648.915	4559
648.966	4501
649.018	4550
649.07	4425
649.121	4500
649.173	4503
649.225	4522
649.277	4560
649.328	4485
649.38	4547
649.432	4542
649.484	4564
649.535	4585
649.587	4562
649.639	4580
649.69	4558
649.742	4604
649.794	4619
649.846	4549
649.897	4613
649.949	4616
650.001	4634
650.053	4612
650.104	4656
650.156	4654
650.208	4579
650.259	4617
650.311	4652
650.363	4601
650.415	4634
650.466	4620
650.518	4658
650.57	4684
650.621	4654
650.673	4696
650.725	4694
650.777	4697
650.828	4663
650.88	4676
650.932	4709
650.984	4755
651.035	4740
651.087	4706
651.139	4714
651.19	4706
651.242	4717
651.294	4732
651.345	4806
651.397	4758
651.449	4782
651.501	4803
651.552	4752
651.604	4744
651.656	4796
651.707	4826
651.759	4820
651.811	4796
651.863	4819
651.914	4842
651.966	4799
652.018	4794
652.069	4824
652.121	4906
652.173	4845
652.224	4882
652.276	4824
652.328	4889
652.38	4851
652.431	4848
652.483	4885
652.535	4884
652.586	4901
652.638	4977
652.69	4954
652.741	4982
652.793	4917
652.845	4885
652.897	4903
652.948	4938
653	4937
653.052	4972
653.103	4969
653.155	5019
653.207	4966
653.258	4940
653.31	5057
653.362	5003
653.413	5035
653.465	4991
653.517	5017
653.568	5037
653.62	5043
653.672	5077
653.724	5098
653.775	5060
653.827	5085
653.879	5057
653.93	5108
653.982	5083
654.034	5121
654.085	5092
654.137	5054
654.189	5123
654.24	5185
654.292	5128
654.344	5167
654.395	5193
654.447	5109
654.499	5172
654.55	5216
654.602	5143
654.654	5155
654.705	5261
654.757	5236
654.809	5274
654.86	5242
654.912	5237
654.964	5260
655.016	5245
655.067	5377
655.119	5292
655.17	5296
655.222	5350
655.274	5318
655.326	5365
655.377	5333
655.429	5348
655.481	5466
655.532	5387
655.584	5436
655.635	5420
655.687	5470
655.739	5485
655.79	5492
655.842	5454
655.894	5440
655.945	5436
655.997	5496
656.049	5521
656.1	5539
656.152	5514
656.204	5506
656.255	5517
656.307	5521
656.359	5617
656.41	5589
656.462	5646
656.514	5544
656.565	5631
656.617	5577
656.669	5668
656.72	5614
656.772	5681
656.824	5685
656.875	5680
656.927	5674
656.979	5699
657.03	5724
657.082	5779
657.134	5707
657.185	5722
657.237	5794
657.288	5786
657.34	5807
657.392	5747
657.443	5825
657.495	5796
657.547	5833
657.598	5777
657.65	5870
657.702	5878
657.753	5875
657.805	5879
657.857	5846
657.908	5817
657.96	5918
658.011	5834
658.063	5961
658.115	5923
658.166	5929
658.218	5972
658.27	6001
658.321	5977
658.373	5905
658.425	5985
658.476	6044
658.528	5964
658.579	5982
658.631	6063
658.683	6003
658.734	6016
658.786	6031
658.838	6017
658.889	5999
658.941	6020
658.992	6025
659.044	6034
659.096	5996
659.147	6090
659.199	6049
659.251	6012
659.302	6077
659.354	6073
659.406	6132
659.457	6058
659.509	6032
659.56	6057
659.612	6055
659.664	6083
659.715	6010
659.767	6008
659.818	6084
659.87	6092
659.922	6194
659.973	6138
660.025	6063
660.077	6067
660.128	6133
660.18	6110
660.231	6076
660.283	6089
660.335	6194
660.386	6130
660.438	6093
660.49	6089
660.541	6171
660.593	6132
660.644	6106
660.696	6161
660.748	6137
660.799	6128
660.851	6142
660.902	6150
660.954	6138
661.006	6114
661.057	6187
661.109	6136
661.16	6147
661.212	6177
661.264	6146
661.315	6165
661.367	6206
661.418	6088
661.47	6068
661.522	6125
661.573	6089
661.625	6085
661.676	6134
661.728	6112
661.78	6120
661.831	6140
661.883	6065
661.934	6093
661.986	6074
662.038	6126
662.089	6151
662.141	6105
662.192	6171
662.244	6123
662.296	6141
662.347	6130
662.399	6159
662.45	6103
662.502	6097
662.554	6150
662.605	6069
662.657	6198
662.708	6139
662.76	6043
662.811	6191
662.863	6143
662.915	6209
662.966	6091
663.018	6125
663.069	6118
663.121	6190
663.173	6106
663.224	6135
663.276	6151
663.327	6184
663.379	6143
663.43	6181
663.482	6121
663.534	6179
663.585	6198
663.637	6114
663.688	6117
663.74	6063.66
663.792	6112.31
663.843	6175.93
663.895	6162.38
663.946	6157.69
663.998	6138.72
664.049	6118.1
664.101	6151.09
664.153	6139.36
664.204	6133.82
664.256	6176.49
664.307	6188.17
664.359	6233.17
664.41	6130.47
664.462	6149
664.513	6162.74
664.565	6175.64
664.617	6096
664.668	6206.33
664.72	6124.17
664.771	6142.13
664.823	6157.8
664.874	6149.77
664.926	6119.59
664.978	6110.38
665.029	6139.3
665.081	6218.47
665.132	6178.84
665.184	6158.26
665.235	6155.5
665.287	6217.32
665.339	6171.24
665.39	6122.84
665.442	6135.83
665.493	6144.98
665.545	6189.56
665.596	6126.75
665.648	6155.98
665.699	6144.91
665.751	6172.94
665.802	6126.67
665.854	6170.6
665.906	6136.25
665.957	6154.83
666.009	6157.92
666.06	6116.9
666.112	6150.45
666.163	6180.62
666.215	6145.73
666.266	6131.96
666.318	6153.35
666.37	6152.03
666.421	6170.28
666.473	6134.18
666.524	6112.66
666.576	6140.32
666.627	6183.26
666.679	6115.31
666.73	6161.93
666.782	6124.69
666.833	6142.69
666.885	6106.49
666.937	6135.91
666.988	6126.93
667.04	6134.18
667.091	6139.73
667.143	6173.36
667.194	6157
667.246	6145.97
667.297	6139.16
667.349	6103.73
667.4	6138.94
667.452	6137.5
667.503	6125.35
667.555	6102.17
667.607	6135.75
667.658	6167.73
667.71	6146.68
667.761	6171.65
667.813	6162.3
667.864	6171.5
667.916	6151.28
667.967	6157.94
668.019	6170.02
668.07	6210.76
668.122	6159.41
668.173	6136.1
668.225	6119.64
668.276	6125.83
668.328	6166.03
668.379	6168.33
668.431	6160.48
668.482	6154.21
668.534	6140.05
668.586	6202.69
668.637	6165.24
668.689	6176.63
668.74	6132.53
668.792	6114.73
668.843	6156.92
668.895	6179.53
668.935	6165
668.987	6187
669.038	6224
669.09	6103
669.142	6164
669.194	6185
669.245	6131
669.297	6221
669.349	6102
669.401	6112
669.453	6136
669.504	6165
669.556	6149
669.608	6142
669.66	6188
669.711	6077
669.763	6122
669.815	6137
669.867	6059
669.918	6171
669.97	6094
670.022	6143
670.074	6155
670.125	6150
670.177	6144
670.229	6107
670.281	6222
670.332	6099
670.384	6167
670.436	6162
670.488	6149
670.539	6141
670.591	6142
670.643	6135
670.695	6029
670.747	6096
670.798	6183
670.85	6208
670.902	6120
670.953	6155
671.005	6111
671.057	6054
671.109	6122
671.161	6163
671.212	6087
671.264	6151
671.316	6162
671.367	6194
671.419	6142
671.471	6167
671.523	6110
671.575	6233
671.626	6137
671.678	6117
671.73	6160
671.781	6108
671.833	6077
671.885	6123
671.937	6136
671.988	6147
672.04	6241
672.092	6225
672.144	6214
672.195	6155
672.247	6253
672.299	6162
672.351	6168
672.402	6228
672.454	6181
672.506	6244
672.558	6268
672.609	6247
672.661	6193
672.713	6200
672.765	6204
672.816	6219
672.868	6174
672.92	6193
672.971	6223
673.023	6316
673.075	6251
673.127	6273
673.178	6326
673.23	6270
673.282	6310
673.334	6252
673.385	6307
673.437	6320
673.489	6323
673.54	6309
673.592	6327
673.644	6380
673.696	6223
673.747	6325
673.799	6339
673.851	6366
673.903	6313
673.954	6255
674.006	6312
674.058	6324
674.109	6352
674.161	6358
674.213	6369
674.265	6353
674.316	6353
674.368	6356
674.42	6418
674.471	6374
674.523	6399
674.575	6388
674.627	6410
674.678	6383
674.73	6410
674.782	6396
674.833	6424
674.885	6411
674.937	6454
674.989	6442
675.04	6516
675.092	6443
675.144	6458
675.195	6439
675.247	6501
675.299	6444
675.351	6539
675.402	6488
675.454	6502
675.506	6564
675.557	6484
675.609	6434
675.661	6518
675.713	6563
675.764	6525
675.816	6548
675.868	6520
675.919	6537
675.971	6516
676.023	6578
676.074	6564
676.126	6595
676.178	6489
676.23	6580
676.281	6544
676.333	6468
676.385	6547
676.436	6580
676.488	6525
676.54	6554
676.591	6536
676.643	6623
676.695	6582
676.747	6580
676.798	6642
676.85	6522
676.902	6582
676.953	6589
677.005	6581
677.057	6601
677.108	6535
677.16	6538
677.212	6593
677.263	6591
677.315	6628
677.367	6559
677.419	6562
677.47	6539
677.522	6690
677.574	6577
677.625	6584
677.677	6474
677.729	6561
677.78	6548
677.832	6606
677.884	6668
677.935	6631
677.987	6551
678.039	6542
678.091	6590
678.142	6602
678.194	6636
678.246	6529
678.297	6604
678.349	6657
678.401	6635
678.452	6518
678.504	6628
678.556	6498
678.607	6628
678.659	6630
678.711	6647
678.762	6617
678.814	6576
678.866	6593
678.917	6566
678.969	6580
679.021	6612
679.072	6671
679.124	6510
679.176	6688
679.227	6643
679.279	6621
679.331	6605
679.382	6609
679.434	6566
679.486	6559
679.537	6581
679.589	6653
679.641	6647
679.692	6607
679.744	6570
679.796	6626
679.847	6641
679.899	6613
679.951	6599
680.003	6653
680.054	6628
680.106	6638
680.157	6702
680.209	6613
680.261	6727
680.312	6630
680.364	6645
680.416	6746
680.467	6668
680.519	6678
680.571	6737
680.622	6714
680.674	6688
680.726	6714
680.777	6687
680.829	6706
680.881	6682
680.932	6730
680.984	6725
681.036	6711
681.087	6729
681.139	6716
681.191	6749
681.242	6725
681.294	6740
681.346	6773
681.397	6725
681.449	6716
681.501	6690
681.552	6700
681.604	6746
681.656	6772
681.707	6753
681.759	6755
681.81	6793
681.862	6742
681.914	6850
681.965	6793
682.017	6833
682.069	6820
682.12	6821
682.172	6777
682.224	6783
682.275	6754
682.327	6845
682.379	6859
682.43	6802
682.482	6753
682.533	6750
682.585	6830
682.637	6776
682.688	6800
682.74	6824
682.792	6831
682.843	6856
682.895	6859
682.947	6846
682.998	6839
683.05	6785
683.102	6843
683.153	6798
683.205	6805
683.256	6821
683.308	6793
683.36	6887
683.411	6819
683.463	6875
683.515	6850
683.566	6866
683.618	6838
683.669	6910
683.721	6844
683.773	6837
683.824	6847
683.876	6818
683.928	6841
683.979	6800
684.031	6821
684.082	6812
684.134	6744
684.186	6812
684.237	6887
684.289	6751
684.341	6888
684.392	6822
684.444	6787
684.495	6808
684.547	6788
684.599	6765
684.65	6798
684.702	6819
684.754	6828
684.805	6795
684.857	6793
684.908	6764
684.96	6779
685.012	6786
685.063	6797
685.115	6735
685.166	6709
685.218	6743
685.27	6830
685.321	6725
685.373	6739
685.424	6781
685.476	6684
685.528	6704
685.579	6729
685.631	6781
685.683	6784
685.734	6745
685.786	6731
685.837	6778
685.889	6787
685.941	6719
685.992	6731
686.044	6798
686.095	6741
686.147	6756
686.199	6698
686.25	6679
686.302	6773
686.353	6727
686.405	6755
686.457	6730
686.508	6693
686.56	6704
686.611	6738
686.663	6655
686.715	6745
686.766	6679
686.818	6697
686.869	6720
686.921	6700
686.973	6676
687.024	6615
687.076	6704
687.127	6637
687.179	6685
687.231	6701
687.282	6743
687.334	6688
687.385	6663
687.437	6694
687.489	6642
687.54	6630
687.592	6622
687.643	6716
687.695	6688
687.747	6662
687.798	6646
687.85	6694
687.901	6673
687.953	6623
688.004	6711
688.056	6679
688.108	6700
688.159	6595
688.211	6614
688.262	6763
688.314	6750
688.366	6615
688.417	6659
688.469	6669
688.52	6694
688.572	6630
688.623	6633
688.675	6656
688.727	6737
688.778	6652
688.83	6576
688.881	6650
688.933	6733
688.984	6604
689.036	6539
689.088	6623
689.139	6651
689.191	6692
689.242	6699
689.294	6690
689.346	6564
689.397	6579
689.449	6632
689.5	6644
689.552	6600
689.603	6565
689.655	6595
689.706	6636
689.758	6595
689.81	6626
689.861	6622
689.913	6648
689.964	6549
690.016	6628
690.067	6664
690.119	6625
690.171	6634
690.222	6606
690.274	6628
690.325	6615
690.377	6591
690.428	6570
690.48	6629
690.531	6546
690.583	6603
690.635	6535
690.686	6547
690.738	6594
690.789	6514
690.841	6495
690.892	6538
690.944	6482
690.996	6561
691.047	6587
691.099	6587
691.15	6515
691.202	6593
691.253	6605
691.305	6572
691.356	6575
691.408	6492
691.459	6509
691.511	6513
691.563	6504
691.614	6463
691.666	6523
691.717	6579
691.769	6539
691.82	6431
691.872	6491
691.923	6455
691.975	6423
692.026	6464
692.078	6470
692.13	6543
692.181	6532
692.233	6461
692.284	6458
692.336	6470
692.387	6482
692.439	6481
692.49	6437
692.542	6502
692.593	6445
692.645	6507
692.697	6394
692.748	6454
692.8	6428
692.851	6486
692.903	6389
692.954	6418
693.006	6446
693.057	6489
693.109	6356
693.16	6429
693.212	6336
693.263	6448
693.315	6374
693.366	6337
693.418	6383
693.47	6327
693.521	6376
693.573	6369
693.624	6411
693.676	6342
693.727	6365
693.779	6398
693.83	6342
693.882	6351
693.933	6348
693.985	6385
694.036	6311
694.088	6399
694.139	6369
694.191	6343
694.242	6309
694.294	6366
694.345	6298
694.397	6278
694.448	6347
694.5	6402
694.552	6329
694.603	6338
694.655	6329
694.706	6341
694.758	6359
694.809	6348
694.861	6379
694.912	6284
694.964	6295
695.015	6323
695.067	6331
695.118	6257
695.17	6347
695.221	6324
695.273	6308
695.324	6285
695.376	6234
695.427	6243
695.479	6205
695.53	6247
695.582	6313
695.633	6174
695.685	6298
695.736	6284
695.788	6285
695.839	6201
695.891	6287
695.942	6245
695.994	6285
696.045	6207
696.097	6326
696.148	6287
696.2	6303
696.251	6240
696.303	6277
696.354	6169
696.406	6198
696.457	6314
696.509	6258
696.56	6290
696.612	6213
696.663	6254
696.715	6211
696.766	6262
696.818	6183
696.869	6186
696.921	6212
696.972	6192
697.024	6190
697.075	6240
697.127	6189
697.178	6179
697.23	6133
697.281	6162
697.333	6148
697.384	6239
697.436	6140
697.487	6179
697.539	6185
697.59	6207
697.642	6164
697.693	6152
697.745	6155
697.796	6147
697.847	6097
697.899	6097
697.95	6119
698.002	6193
698.053	6098
698.105	6052
698.156	6085
698.208	6142
698.259	6105
698.311	6155
698.362	6118
698.414	6087
698.465	6063
698.517	6039
698.568	6017
698.62	6036
698.671	6056
698.723	6014
698.774	6021
698.826	5992
698.877	6090
698.928	6000
698.98	6034
699.031	6034
699.083	6035
699.134	6010
699.186	6019
699.237	5969
699.289	5982
699.34	5995
699.392	5974
699.443	6008
699.495	5955
699.546	5983
699.598	5901
699.649	5974
699.7	5935
699.752	5949
699.803	5976
699.855	5952
699.906	5967
699.958	5927
700.009	5967
700.061	5958
700.112	5965
700.164	5880
700.215	5928
700.266	5906
700.318	5936
700.369	5960
700.421	5933
700.472	5950
700.524	5924
700.575	5833
700.627	5903
700.678	5916
700.73	6008
700.781	5910
700.832	5902
700.884	5965
700.935	5983
700.987	5930
701.038	5994
701.09	5919
701.141	5871
701.193	5928
701.244	5930
701.295	5966
701.347	5945
701.398	5902
701.45	5923
701.501	5933
701.553	5970
701.604	5960
701.656	5935
701.707	5880
701.758	5879
701.81	5940
701.861	5898
701.913	5955
701.964	6023
702.016	5999
702.067	5956
702.119	5971
702.17	5899
702.221	5959
702.273	5954
702.324	5984
702.376	5966
702.427	5980
702.479	5945
702.53	5946
702.581	6011
702.633	5927
702.684	5978
702.736	5893
702.787	5919
702.839	5936
702.89	5969
702.941	5941
702.993	5928
703.044	5911
703.096	5938
703.147	5866
703.199	5925
703.25	5952
703.301	5924
703.353	5915
703.404	5931
703.456	5918
703.507	5870
703.558	5947
703.61	5869
703.661	5985
703.713	5863
703.764	5910
703.816	5969
703.867	5910
703.918	5888
703.97	5933
704.021	5962
704.073	5925
704.124	5844
704.175	5857
704.227	5901
704.278	5853
704.33	5878
704.381	5881
704.432	5893
704.484	5879
704.535	5902
704.587	5865
704.638	5856
704.69	5852
704.741	5925
704.792	5851
704.844	5876
704.895	5892
704.947	5814
704.998	5862
705.049	5818
705.101	5840
705.152	5871
705.204	5810
705.255	5847
705.306	5800
705.358	5802
705.409	5788
705.461	5812
705.512	5785
705.563	5770
705.615	5783
705.666	5690
705.718	5723
705.769	5763
705.82	5712
705.872	5696
705.923	5831
705.974	5651
706.026	5753
706.077	5722
706.129	5704
706.18	5752
706.231	5736
706.283	5683
706.334	5733
706.386	5738
706.437	5677
706.488	5671
706.54	5678
706.591	5771
706.643	5634
706.694	5630
706.745	5704
706.797	5682
706.848	5674
706.899	5679
706.951	5712
707.002	5622
707.054	5668
707.105	5680
707.156	5640
707.208	5649
707.259	5602
707.31	5583
707.362	5643
707.413	5528
707.465	5554
707.516	5579
707.567	5580
707.619	5583
707.67	5589
707.721	5590
707.773	5624
707.824	5605
707.876	5614
707.927	5568
707.978	5583
708.03	5565
708.081	5551
708.132	5589
708.184	5597
708.235	5583
708.287	5510
708.338	5532
708.389	5585
708.441	5512
708.492	5607
708.543	5494
708.595	5510
708.646	5530
708.697	5497
708.749	5461
708.8	5575
708.852	5478
708.903	5494
708.954	5469
709.006	5521
709.057	5504
709.108	5453
709.16	5491
709.211	5510
709.262	5446
709.314	5513
709.365	5512
709.416	5524
709.468	5528
709.519	5476
709.57	5439
709.622	5432
709.673	5534
709.725	5476
709.776	5464
709.827	5466
709.879	5494
709.93	5505
709.981	5469
710.033	5515
710.084	5518
710.135	5532
710.187	5453
710.238	5524
710.289	5453
710.341	5432
710.392	5426
710.443	5460
710.495	5436
710.546	5442
710.597	5425
710.649	5395
710.7	5409
710.751	5455
710.803	5463
710.854	5397
710.905	5446
710.957	5449
711.008	5448
711.059	5427
711.111	5339
711.162	5375
711.213	5492
711.265	5401.59
711.316	5390.73
711.367	5385.76
711.419	5415.42
711.47	5457.98
711.521	5413.7
711.573	5373.95
711.624	5335.68
711.675	5381.84
711.727	5369.59
711.778	5331.18
711.829	5406.09
711.881	5349.14
711.932	5361.15
711.983	5381.55
712.035	5424.36
712.086	5408.21
712.137	5342.24
712.189	5355.77
712.24	5371.03
712.291	5368.24
712.343	5322.06
712.394	5321.12
712.445	5294.3
712.496	5326.17
712.548	5326.14
712.599	5325.2
712.65	5338.22
712.702	5299.48
712.753	5289.33
712.804	5312.45
712.856	5320.53
712.907	5290.31
712.958	5248.1
713.01	5293.32
713.061	5261.48
713.112	5267
713.164	5217.23
713.215	5260.03
713.266	5261.58
713.317	5252.92
713.369	5256.58
713.42	5264.79
713.471	5227.27
713.523	5235.03
713.574	5204.8
713.625	5208.89
713.677	5217.44
713.728	5210.08
713.779	5188.24
713.831	5216.65
713.882	5221.34
713.933	5181.04
713.984	5167.62
714.036	5138.81
714.087	5191.94
714.138	5148.96
714.19	5184.84
714.241	5156.81
714.292	5130.12
714.343	5111.36
714.395	5144.33
714.446	5113.84
714.497	5131.52
714.549	5109.05
714.6	5089.44
714.651	5101.89
714.703	5126.17
714.754	5120.16
714.805	5129.39
714.856	5110.13
714.908	5068.07
714.959	5074.32
715.01	5095.38
715.062	5083.63
715.113	5067.84
715.164	5068.64
715.215	5041.44
715.267	5060.4
715.318	5070.04
715.369	5028.42
715.421	5031.09
715.472	5026.51
715.523	4998.13
715.574	5002.7
715.626	5044.94
715.677	5053.19
715.728	5027.62
715.779	5007.24
715.831	5017.56
715.882	5038.18
715.933	4998
715.985	5011.73
716.036	4985.72
716.087	4984.27
716.138	5021.58
716.19	4990.43
716.241	4985.25
716.292	5017.52
716.343	5008.35
716.395	4996.64
716.433	5000
716.485	5003
716.536	4943
716.588	5003
716.639	4972
716.691	4951
716.742	5008
716.794	4910
716.845	4977
716.897	4942
716.948	4933
717	4961
717.052	4879
717.103	4917
717.155	4910
717.206	4888
717.258	4953
717.309	4918
717.361	4890
717.412	4843
717.464	4902
717.515	4887
717.567	4871
717.618	4883
717.67	4869
717.721	4903
717.773	4895
717.824	4879
717.876	4915
717.927	4915
717.979	4831
718.03	4842
718.082	4859
718.133	4862
718.185	4842
718.237	4819
718.288	4854
718.34	4812
718.391	4800
718.443	4804
718.494	4885
718.546	4861
718.597	4786
718.649	4845
718.7	4876
718.752	4816
718.803	4788
718.855	4781
718.906	4791
718.958	4770
719.009	4812
719.061	4825
719.112	4691
719.164	4721
719.215	4747
719.267	4740
719.318	4767
719.37	4791
719.421	4707
719.473	4758
719.524	4691
719.576	4779
719.627	4693
719.679	4730
719.73	4748
719.782	4742
719.833	4726
719.885	4690
719.936	4737
719.988	4737
720.039	4768
720.091	4718
720.142	4673
720.194	4719
720.245	4734
720.297	4681
720.348	4664
720.4	4638
720.451	4646
720.503	4715
720.554	4659
720.606	4675
720.657	4619
720.709	4673
720.76	4638
720.812	4601
720.863	4622
720.915	4676
720.966	4646
721.018	4581
721.069	4610
721.121	4563
721.172	4609
721.224	4564
721.275	4594
721.327	4582
721.378	4534
721.43	4570
721.481	4545
721.532	4544
721.584	4531
721.635	4496
721.687	4521
721.738	4564
721.79	4537
721.841	4515
721.893	4524
721.944	4487
721.996	4514
722.047	4542
722.099	4464
722.15	4481
722.202	4463
722.253	4516
722.305	4461
722.356	4437
722.408	4453
722.459	4506
722.511	4440
722.562	4457
722.614	4422
722.665	4447
722.716	4455
722.768	4443
722.819	4427
722.871	4445
722.922	4394
722.974	4460
723.025	4411
723.077	4436
723.128	4445
723.18	4390
723.231	4361
723.283	4387
723.334	4436
723.386	4379
723.437	4392
723.488	4391
723.54	4409
723.591	4354
723.643	4361
723.694	4338
723.746	4324
723.797	4357
723.849	4368
723.9	4373
723.952	4319
724.003	4358
724.055	4326
724.106	4364
724.157	4349
724.209	4365
724.26	4375
724.312	4312
724.363	4318
724.415	4313
724.466	4317
724.518	4276
724.569	4232
724.621	4285
724.672	4291
724.723	4259
724.775	4230
724.826	4281
724.878	4202
724.929	4253
724.981	4299
725.032	4297
725.084	4278
725.135	4256
725.187	4254
725.238	4251
725.289	4294
725.341	4219
725.392	4266
725.444	4271
725.495	4248
725.547	4201
725.598	4249
725.65	4221
725.701	4249
725.752	4186
725.804	4209
725.855	4146
725.907	4207
725.958	4193
726.01	4168
726.061	4232
726.112	4139
726.164	4176
726.215	4224
726.267	4179
726.318	4155
726.37	4160
726.421	4173
726.473	4142
726.524	4208
726.575	4230
726.627	4108
726.678	4120
726.73	4175
726.781	4086
726.833	4119
726.884	4111
726.935	4169
726.987	4090
727.038	4141
727.09	4103
727.141	4104
727.193	4079
727.244	4144
727.295	4054
727.347	4061
727.398	4074
727.45	4093
727.501	4066
727.552	4097
727.604	4024
727.655	4060
727.707	4074
727.758	4067
727.81	4015
727.861	4009
727.912	4022
727.964	4023
728.015	3971
728.067	3983
728.118	4012
728.17	4061
728.221	4023
728.272	4003
728.324	4051
728.375	3972
728.427	4020
728.478	4007
728.529	4006
728.581	4041
728.632	3900
728.684	3971
728.735	3924
728.786	3930
728.838	3923
728.889	3944
728.941	3910
728.992	3894
729.044	3910
729.095	3910
729.146	3908
729.198	3829
729.249	3894
729.301	3836
729.352	3825
729.403	3904
729.455	3830
729.506	3840
729.558	3830
729.609	3834
729.66	3799
729.712	3792
729.763	3803
729.815	3846
729.866	3780
729.917	3805
729.969	3856
730.02	3804
730.072	3814
730.123	3751
730.174	3798
730.226	3802
730.277	3759
730.329	3774
730.38	3767
730.431	3791
730.483	3754
730.534	3725
730.586	3762
730.637	3725
730.688	3733
730.74	3753
730.791	3727
730.842	3780
730.894	3740
730.945	3723
730.997	3685
731.048	3692
731.099	3752
731.151	3694
731.202	3691
731.254	3698
731.305	3674
731.356	3683
731.408	3706
731.459	3695
731.51	3686
731.562	3621
731.613	3696
731.665	3705
731.716	3698
731.767	3642
731.819	3649
731.87	3694
731.922	3643
731.973	3659
732.024	3638
732.076	3637
732.127	3582
732.178	3613
732.23	3607
732.281	3684
732.333	3593
732.384	3651
732.435	3599
732.487	3662
732.538	3678
732.589	3548
732.641	3588
732.692	3655
732.744	3594
732.795	3594
732.846	3613
732.898	3666
732.949	3637
733	3609
733.052	3585
733.103	3566
733.154	3668
733.206	3601
733.257	3612
733.309	3598
733.36	3618
733.411	3580
733.463	3571
733.514	3564
733.565	3588
733.617	3598
733.668	3582
733.719	3531
733.771	3566
733.822	3615
733.873	3610
733.925	3649
733.976	3560
734.028	3546
734.079	3576
734.13	3552
734.182	3551
734.233	3527
734.284	3524
734.336	3532
734.387	3524
734.438	3498
734.49	3536
734.541	3555
734.592	3543
734.644	3546
734.695	3526
734.747	3552
734.798	3509
734.849	3527
734.901	3494
734.952	3555
735.003	3527
735.055	3535
735.106	3516
735.157	3480
735.209	3500
735.26	3502
735.311	3457
735.363	3536
735.414	3505
735.465	3531
735.517	3445
735.568	3467
735.619	3506
735.671	3431
735.722	3525
735.773	3449
735.825	3508
735.876	3487
735.927	3430
735.979	3455
736.03	3515
736.081	3454
736.133	3513
736.184	3473
736.235	3454
736.287	3477
736.338	3464
736.389	3449
736.441	3447
736.492	3447
736.543	3506
736.595	3413
736.646	3494
736.697	3409
736.749	3459
736.8	3445
736.851	3445
736.903	3470
736.954	3462
737.005	3473
737.057	3460
737.108	3440
737.159	3413
737.211	3447
737.262	3448
737.313	3461
737.365	3447
737.416	3443
737.467	3466
737.518	3453
737.57	3458
737.621	3468
737.672	3454
737.724	3393
737.775	3428
737.826	3472
737.878	3424
737.929	3496
737.98	3434
738.032	3457
738.083	3428
738.134	3468
738.186	3450
738.237	3455
738.288	3396
738.339	3408
738.391	3420
738.442	3417
738.493	3453
738.545	3455
738.596	3449
738.647	3426
738.699	3396
738.75	3452
738.801	3388
738.853	3409
738.904	3405
738.955	3356
739.006	3442
739.058	3415
739.109	3378
739.16	3407
739.212	3394
739.263	3406
739.314	3369
739.366	3462
739.417	3425
739.468	3395
739.519	3372
739.571	3394
739.622	3358
739.673	3376
739.725	3372
739.776	3359
739.827	3362
739.878	3329
739.93	3373
739.981	3333
740.032	3365
740.084	3338
740.135	3325
740.186	3331
740.237	3267
740.289	3351
740.34	3343
740.391	3334
740.443	3316
740.494	3259
740.545	3368
740.596	3270
740.648	3287
740.699	3356
740.75	3279
740.802	3261
740.853	3280
740.904	3289
740.956	3325
741.007	3258
741.058	3256
741.109	3297
741.161	3300
741.212	3300
741.263	3290
741.314	3246
741.366	3241
741.417	3198
741.468	3244
741.52	3265
741.571	3289
741.622	3223
741.673	3226
741.725	3204
741.776	3245
741.827	3203
741.878	3239
741.93	3236
741.981	3191
742.032	3193
742.083	3203
742.135	3205
742.186	3193
742.237	3175
742.289	3169
742.34	3144
742.391	3232
742.442	3245
742.494	3178
742.545	3218
742.596	3157
742.647	3184
742.699	3163
742.75	3117
742.801	3184
742.852	3206
742.904	3163
742.955	3196
743.006	3188
743.057	3185
743.109	3165
743.16	3156
743.211	3178
743.263	3129
743.314	3114
743.365	3123
743.416	3115
743.468	3147
743.519	3111
743.57	3136
743.621	3123
743.672	3102
743.724	3073
743.775	3078
743.826	3139
743.878	3107
743.929	3103
743.98	3118
744.031	3063
744.083	3056
744.134	3072
744.185	3032
744.236	3068
744.287	3038
744.339	3088
744.39	3066
744.441	3050
744.492	3060
744.544	3050
744.595	3069
744.646	3053
744.697	3069
744.749	3057
744.8	3097
744.851	3045
744.902	3031
744.954	3043
745.005	3023
745.056	3023
745.107	3038
745.159	2998
745.21	3022
745.261	3033
745.312	2995
745.363	2996
745.415	2991
745.466	2977
745.517	2985
745.568	2987
745.62	3002
745.671	2953
745.722	2940
745.773	2942
745.824	2934
745.876	3006
745.927	3003
745.978	2996
746.029	2970
746.081	2949
746.132	2993
746.183	2931
746.234	2973
746.285	3022
746.337	2932
746.388	2990
746.439	2973
746.49	2959
746.542	2943
746.593	2988
746.644	2948
746.695	2947
746.746	2969
746.798	2946
746.849	2906
746.9	2934
746.951	2939
747.003	2943
747.054	2919
747.105	2997
747.156	2943
747.207	2951
747.259	2885
747.31	2905
747.361	2903
747.412	2873
747.463	2928
747.515	2944
747.566	2967
747.617	2900
747.668	2889
747.719	2887
747.771	2911
747.822	2877
747.873	2840
747.924	2863
747.975	2912
748.027	2875
748.078	2898
748.129	2907
748.18	2894
748.231	2901
748.283	2875
748.334	2879
748.385	2873
748.436	2857
748.487	2892
748.539	2834
748.59	2781
748.641	2835
748.692	2833
748.743	2900
748.795	2807
748.846	2912
748.897	2827
748.948	2846
748.999	2886
749.05	2845
749.102	2811
749.153	2848
749.204	2899
749.255	2877
749.306	2855
749.358	2777
749.409	2857
749.46	2825
749.511	2805
749.562	2778
749.614	2862
749.665	2800
749.716	2815
749.767	2843
749.818	2768
749.869	2779
749.921	2814
749.972	2824
750.023	2846
750.074	2792
750.125	2763
750.177	2793
750.228	2793
750.279	2756
750.33	2812
750.381	2758
750.432	2797
750.484	2786
750.535	2756
750.586	2781
750.637	2799
750.688	2815
750.739	2780
750.791	2755
750.842	2760
750.893	2778
750.944	2735
750.995	2757
751.046	2729
751.098	2769
751.149	2716
751.2	2731
751.251	2768
751.302	2710
751.353	2714
751.404	2766
751.456	2695
751.507	2731
751.558	2680
751.609	2681
751.66	2736
751.711	2683
751.763	2696
751.814	2677
751.865	2705
751.916	2661
751.967	2712
752.018	2667
752.07	2668
752.121	2678
752.172	2726
752.223	2659
752.274	2680
752.325	2689
752.376	2672
752.428	2673
752.479	2688
752.53	2655
752.581	2638
752.632	2673
752.683	2682
752.734	2700
752.786	2660
752.837	2643
752.888	2619
752.939	2647
752.99	2674
753.041	2632
753.092	2589
753.144	2632
753.195	2604
753.246	2615
753.297	2620
753.348	2642
753.399	2604
753.45	2582
753.502	2628
753.553	2590
753.604	2594
753.655	2638
753.706	2568
753.757	2554
753.808	2578
753.859	2593
753.911	2603
753.962	2580
754.013	2555
754.064	2573
754.115	2580
754.166	2549
754.217	2581
754.269	2557
754.32	2555
754.371	2568
754.422	2531
754.473	2537
754.524	2561
754.575	2546
754.626	2574
754.678	2562
754.729	2516
754.78	2520
754.831	2486
754.882	2513
754.933	2539
754.984	2529
755.035	2574
755.086	2509
755.138	2517
755.189	2525
755.24	2488
755.291	2472
755.342	2528
755.393	2510
755.444	2474
755.495	2474
755.547	2462
755.598	2506
755.649	2457
755.7	2455
755.751	2507
755.802	2519
755.853	2447
755.904	2497
755.955	2465
756.006	2450
756.058	2477
756.109	2499
756.16	2465
756.211	2430
756.262	2460
756.313	2464
756.364	2408
756.415	2456
756.466	2440
756.518	2385
756.569	2477
756.62	2460
756.671	2455
756.722	2445
756.773	2432
756.824	2418
756.875	2457
756.926	2415
756.977	2379
757.029	2412
757.08	2423
757.131	2429
757.182	2417
757.233	2372
757.284	2377
757.335	2398
757.386	2405
757.437	2393
757.488	2422
757.539	2414
757.59	2382
757.642	2393
757.693	2364
757.744	2377
757.795	2423
757.846	2350
757.897	2348
757.948	2374
757.999	2393
758.05	2376
758.101	2362
758.152	2372
758.203	2326
758.255	2381
758.306	2349
758.357	2341
758.408	2354
758.459	2354
758.51	2338.23
758.561	2362.37
758.612	2358.58
758.663	2336.47
758.714	2381.94
758.765	2322.21
758.816	2321.91
758.867	2325.38
758.919	2346.42
758.97	2348.15
759.021	2322.92
759.072	2333.1
759.123	2339.63
759.174	2352.61
759.225	2321.41
759.276	2356.21
759.327	2304.24
759.378	2291.85
759.429	2306.42
759.48	2287.9
759.531	2305.49
759.582	2272.04
759.633	2303.72
759.685	2332.17
759.736	2301.46
759.787	2312.5
759.838	2282.8
759.889	2291.97
759.94	2280.01
759.991	2254.71
760.042	2284.42
760.093	2292.13
760.144	2253.21
760.195	2280.99
760.246	2262.49
760.297	2277.75
760.348	2240.65
760.399	2248.79
760.45	2265.16
760.501	2243.77
760.552	2264.65
760.603	2229.26
760.655	2257
760.706	2224.61
760.757	2238.44
760.808	2207.2
760.859	2211.47
760.91	2255.15
760.961	2225.79
761.012	2223.92
761.063	2224.55
761.114	2231.31
761.165	2216.92
761.216	2211.49
761.267	2206.46
761.318	2213.7
761.369	2197.03
761.42	2215.05
761.471	2219.3
761.522	2184.52
761.573	2203.46
761.624	2193.79
761.675	2204.2
761.726	2180.71
761.777	2209.11
761.828	2170.66
761.88	2201.45
761.931	2203.07
761.982	2189.55
762.033	2197.52
762.084	2183.65
762.135	2172.29
762.186	2166.09
762.237	2161.6
762.288	2166.89
762.339	2153.23
762.39	2173.39
762.441	2165.75
762.492	2168.32
762.543	2160.98
762.594	2171.16
762.645	2150.65
762.696	2129.97
762.747	2118.56
762.798	2172.31
762.849	2163.47
762.9	2143.84
762.951	2131.27
763.002	2119.37
763.053	2162.7
763.104	2118.48
763.155	2128.38
763.206	2097.85
763.257	2104.1
763.308	2104.45
763.359	2141.11
763.41	2117.17
763.461	2100.22
763.512	2109.48
763.563	2099.55
763.614	2060.18
763.665	2073.24
763.678	2081
763.729	2049
763.78	2097
763.832	2128
763.883	2127
763.934	2069
763.986	2071
764.037	2088
764.088	2058
764.139	2120
764.191	2103
764.242	2121
764.293	2038
764.345	2084
764.396	2058
764.447	2050
764.498	2066
764.55	2033
764.601	2063
764.652	2090
764.704	2041
764.755	2032
764.806	2020
764.857	2012
764.909	2020
764.96	2054
765.011	2029
765.062	2023
765.114	2039
765.165	2018
765.216	2026
765.268	2053
765.319	2018
765.37	2020
765.421	1980
765.473	1993
765.524	2005
765.575	2005
765.626	2016
765.678	2032
765.729	2019
765.78	1963
765.831	1988
765.883	2022
765.934	1992
765.985	2050
766.036	1994
766.088	2017
766.139	1951
766.19	1967
766.242	1960
766.293	2015
766.344	1979
766.395	1965
766.447	1958
766.498	1970
766.549	1993
766.6	1928
766.652	1951
766.703	2003
766.754	2001
766.805	1950
766.857	1942
766.908	1971
766.959	1981
767.01	1956
767.062	1931
767.113	1966
767.164	1958
767.215	1936
767.267	1914
767.318	1921
767.369	1902
767.42	1926
767.472	1921
767.523	1911
767.574	1903
767.625	1936
767.677	1948
767.728	1904
767.779	1925
767.83	1866
767.882	1905
767.933	1926
767.984	1870
768.035	1915
768.087	1868
768.138	1917
768.189	1883
768.24	1904
768.292	1911
768.343	1897
768.394	1909
768.445	1875
768.497	1894
768.548	1842
768.599	1867
768.65	1858
768.701	1848
768.753	1864
768.804	1872
768.855	1881
768.906	1835
768.958	1890
769.009	1852
769.06	1854
769.111	1825
769.163	1846
769.214	1855
769.265	1847
769.316	1808
769.367	1864
769.419	1808
769.47	1836
769.521	1837
769.572	1857
769.624	1853
769.675	1836
769.726	1816
769.777	1805
769.828	1768
769.88	1818
769.931	1836
769.982	1840
770.033	1840
770.085	1831
770.136	1838
770.187	1804
770.238	1827
770.289	1808
770.341	1818
770.392	1790
770.443	1771
770.494	1777
770.546	1795
770.597	1829
770.648	1801
770.699	1776
770.75	1799
770.802	1781
770.853	1763
770.904	1777
770.955	1775
771.006	1809
771.058	1797
771.109	1769
771.16	1753
771.211	1762
771.263	1756
771.314	1741
771.365	1743
771.416	1720
771.467	1708
771.519	1777
771.57	1732
771.621	1755
771.672	1712
771.723	1741
771.775	1748
771.826	1735
771.877	1735
771.928	1746
771.979	1722
772.031	1730
772.082	1723
772.133	1741
772.184	1728
772.235	1681
772.287	1727
772.338	1711
772.389	1693
772.44	1729
772.491	1688
772.543	1714
772.594	1689
772.645	1694
772.696	1711
772.747	1677
772.799	1671
772.85	1685
772.901	1662
772.952	1656
773.003	1647
773.055	1666
773.106	1671
773.157	1669
773.208	1642
773.259	1684
773.31	1659
773.362	1667
773.413	1669
773.464	1663
773.515	1662
773.566	1674
773.618	1642
773.669	1678
773.72	1625
773.771	1663
773.822	1604
773.873	1597
773.925	1648
773.976	1656
774.027	1618
774.078	1630
774.129	1618
774.18	1645
774.232	1627
774.283	1633
774.334	1608
774.385	1622
774.436	1627
774.488	1565
774.539	1658
774.59	1574
774.641	1602
774.692	1600
774.743	1618
774.795	1557
774.846	1572
774.897	1601
774.948	1555
774.999	1569
775.05	1574
775.102	1625
775.153	1600
775.204	1572
775.255	1586
775.306	1586
775.357	1581
775.409	1582
775.46	1557
775.511	1565
775.562	1550
775.613	1532
775.664	1560
775.716	1597
775.767	1578
775.818	1539
775.869	1555
775.92	1557
775.971	1533
776.023	1563
776.074	1548
776.125	1544
776.176	1502
776.227	1552
776.278	1541
776.329	1527
776.381	1501
776.432	1519
776.483	1496
776.534	1495
776.585	1553
776.636	1530
776.688	1502
776.739	1485
776.79	1551
776.841	1546
776.892	1490
776.943	1517
776.994	1504
777.046	1494
777.097	1526
777.148	1507
777.199	1482
777.25	1495
777.301	1499
777.352	1498
777.404	1480
777.455	1471
777.506	1471
777.557	1471
777.608	1487
777.659	1499
777.71	1516
777.762	1473
777.813	1487
777.864	1465
777.915	1466
777.966	1497
778.017	1475
778.068	1447
778.12	1457
778.171	1472
778.222	1464
778.273	1445
778.324	1431
778.375	1447
778.426	1428
778.477	1457
778.529	1458
778.58	1460
778.631	1445
778.682	1432
778.733	1412
778.784	1423
778.835	1383
778.886	1424
778.938	1435
778.989	1423
779.04	1428
779.091	1391
779.142	1407
779.193	1407
779.244	1424
779.295	1425
779.347	1406
779.398	1412
779.449	1392
779.5	1395
779.551	1404
779.602	1410
779.653	1404
779.704	1404
779.755	1399
779.807	1402
779.858	1422
779.909	1401
779.96	1341
780.011	1377
780.062	1365
780.113	1378
780.164	1379
780.216	1397
780.267	1373
780.318	1370
780.369	1374
780.42	1387
780.471	1374
780.522	1384
780.573	1371
780.624	1372
780.675	1352
780.727	1355
780.778	1342
780.829	1370
780.88	1356
780.931	1396
780.982	1340
781.033	1324
781.084	1340
781.135	1353
781.187	1334
781.238	1393
781.289	1330
781.34	1341
781.391	1335
781.442	1329
781.493	1333
781.544	1328
781.595	1323
781.646	1333
781.698	1344
781.749	1323
781.8	1310
781.851	1337
781.902	1307
781.953	1323
782.004	1307
782.055	1323
782.106	1321
782.157	1273
782.208	1315
782.26	1300
782.311	1289
782.362	1308
782.413	1295
782.464	1285
782.515	1310
782.566	1316
782.617	1287
782.668	1318
782.719	1270
782.77	1280
782.821	1265
782.872	1297
782.924	1271
782.975	1288
783.026	1282
783.077	1279
783.128	1250
783.179	1244
783.23	1280
783.281	1271
783.332	1229
783.383	1262
783.434	1264
783.485	1260
783.536	1253
783.588	1270
783.639	1278
783.69	1238
783.741	1267
783.792	1272
783.843	1260
783.894	1244
783.945	1256
783.996	1226
784.047	1221
784.098	1220
784.149	1239
784.2	1214
784.252	1242
784.303	1226
784.354	1250
784.405	1230
784.456	1237
784.507	1227
784.558	1241
784.609	1207
784.66	1221
784.711	1215
784.762	1222
784.813	1224
784.864	1186
784.915	1193
784.966	1196
785.017	1206
785.068	1187
785.12	1165
785.171	1207
785.222	1199
785.273	1193
785.324	1213
785.375	1212
785.426	1200
785.477	1179
785.528	1178
785.579	1208
785.63	1208
785.681	1161
785.732	1162
785.783	1178
785.834	1211
785.885	1191
785.936	1168
785.987	1194
786.038	1147
786.089	1177
786.141	1148
786.192	1180
786.243	1196
786.294	1188
786.345	1164
786.396	1144
786.447	1164
786.498	1137
786.549	1165
786.6	1161
786.651	1149
786.702	1162
786.753	1090
786.804	1147
786.855	1132
786.906	1156
786.957	1134
787.008	1132
787.059	1124
787.11	1144
787.161	1139
787.212	1110
787.263	1114
787.314	1132
787.365	1142
787.416	1156
787.467	1123
787.518	1148
787.57	1109
787.621	1131
787.672	1118
787.723	1084
787.774	1101
787.825	1093
787.876	1144
787.927	1094
787.978	1115
788.029	1123
788.08	1127
788.131	1087
788.182	1110
788.233	1130
788.284	1109
788.335	1087
788.386	1080
788.437	1106
788.488	1080
788.539	1099
788.59	1083
788.641	1109
788.692	1095
788.743	1082
788.794	1055
788.845	1108
788.896	1103
788.947	1070
788.998	1086
789.049	1081
789.1	1059
789.151	1061
789.202	1069
789.253	1077
789.304	1055
789.355	1059
789.406	1074
789.457	1062
789.508	1066
789.559	1055
789.61	1104
789.661	1071
789.712	1060
789.763	1070
789.814	1045
789.865	1068
789.916	1080
789.967	1054
790.018	1069
790.069	1028
790.12	1038
790.171	1065
790.222	1055
790.273	1056
790.324	1036
790.375	1049
790.426	1006
790.477	1039
790.528	1066
790.579	1057
790.63	1044
790.681	1062
790.732	1046
790.783	1015
790.834	1004
790.885	1009
790.936	995
790.987	1038
791.038	1028
791.089	1008
791.14	1033
791.191	1026
791.242	1010
791.293	1025
791.344	995
791.395	991
791.446	1006
791.497	1010
791.548	999
791.599	1002
791.65	996
791.701	995
791.752	1012
791.803	995
791.854	1016
791.905	1014
791.956	986
792.007	1005
792.058	1004
792.109	1005
792.16	1003
792.211	983
792.262	978
792.313	971
792.363	972
792.414	981
792.465	954
792.516	981
792.567	941
792.618	958
792.669	954
792.72	961
792.771	977
792.822	937
792.873	962
792.924	989
792.975	977
793.026	968
793.077	951
793.128	954
793.179	928
793.23	971
793.281	950
793.332	957
793.383	947
793.434	940
793.485	979
793.536	962
793.587	958
793.638	971
793.689	921
793.74	930
793.79	925
793.841	933
793.892	916
793.943	949
793.994	949
794.045	916
794.096	935
794.147	941
794.198	920
794.249	929
794.3	934
794.351	942
794.402	924
794.453	910
794.504	929
794.555	918
794.606	924
794.657	916
794.708	920
794.758	942
794.809	905
794.86	918
794.911	889
794.962	927
795.013	912
795.064	901
795.115	901
795.166	920
795.217	904
795.268	930
795.319	889
795.37	930
795.421	903
795.472	891
795.523	875
795.573	888
795.624	903
795.675	881
795.726	902
795.777	881
795.828	889
795.879	912
795.93	863
795.981	893
796.032	893
796.083	854
796.134	884
796.185	880
796.236	897
796.286	886
796.337	873
796.388	883
796.439	875
796.49	873
796.541	848
796.592	861
796.643	881
796.694	866
796.745	875
796.796	858
796.847	853
796.897	856
796.948	829
796.999	862
797.05	891
797.101	868
797.152	873
797.203	871
797.254	858
797.305	855
797.356	825
797.407	865
797.458	855
797.508	847
797.559	839
797.61	837
797.661	857
797.712	861
797.763	850
797.814	861
797.865	814
797.916	847
797.967	819
798.018	835
798.068	826
798.119	848
798.17	831
798.221	837
798.272	831
798.323	829
798.374	825
798.425	831
798.476	790
798.526	819
798.577	811
798.628	795
798.679	815
798.73	817
798.781	807
798.832	833
798.883	824
798.934	793
798.984	800
799.035	826
799.086	816
799.137	824
799.188	823
799.239	819
799.29	799
799.341	800
799.392	780
799.443	808
799.493	831
799.544	794
799.595	806
799.646	785
799.697	792
799.748	788
799.799	788
799.85	801
799.9	793
799.951	772
800.002	767
800.053	785
800.104	780
800.155	760
800.206	778
800.257	788
800.307	772
800.358	774
800.409	768
800.46	787
800.511	785
800.562	799
800.613	778
800.664	792
800.714	766
800.765	780
800.816	754
800.867	748
800.918	768
800.969	773
801.02	764
801.07	767
801.121	780
801.172	767
801.223	764
801.274	758
801.325	748
801.376	744
801.427	769
801.477	756
801.528	748
801.579	753
801.63	756
801.681	752
801.732	778
801.783	750
801.833	734
801.884	744
801.935	736
801.986	760
802.037	736
802.088	762
802.139	744
802.189	745
802.24	748
802.291	708
802.342	743
802.393	729
802.444	749
802.495	765
802.545	753
802.596	745
802.647	741
802.698	725
802.749	714
802.8	747
802.85	718
802.901	737
802.952	711
803.003	729
803.054	738
803.105	728
803.155	736
803.206	733
803.257	715
803.308	729
803.359	701
803.41	705
803.46	714
803.511	698
803.562	696
803.613	691
803.664	711
803.715	728
803.765	686
803.816	721
803.867	705
803.918	734
803.969	719
804.02	700
804.07	696
804.121	699
804.172	700
804.223	689
804.274	696
804.325	699
804.375	691
804.426	685
804.477	702
804.528	677
804.579	728
804.63	691
804.68	683
804.731	699
804.782	677
804.833	696
804.884	670
804.934	676
804.985	674
805.036	689
805.087	686
805.138	704
805.188	691
805.239	675
805.29	676
805.341	679
805.392	691
805.443	675
805.493	668.035
805.544	689.666
805.595	686.649
805.646	684.813
805.697	676.685
805.747	663.647
805.798	673.597
805.849	683.165
805.9	664.009
805.951	656.651
806.001	664.491
806.052	683.367
806.103	653.463
806.154	657.557
806.205	673.067
806.255	693.672
806.306	658.921
806.357	658.243
806.408	666.901
806.459	663.035
806.509	653.597
806.56	655.431
806.611	637.382
806.662	669.794
806.713	662.628
806.763	654.763
806.814	648.956
806.865	637.999
806.916	660.992
806.967	660.537
807.017	663.51
807.068	651.091
807.119	644.44
807.17	654.476
807.22	654.264
807.271	649.401
807.322	647.999
807.373	646.506
807.424	644.947
807.474	643.15
807.525	638.555
807.576	646.862
807.627	638.182
807.678	622.127
807.728	640.639
807.779	638.131
807.83	639.154
807.881	621.07
807.931	635.538
807.982	636.01
808.033	642.69
808.084	629.382
808.135	629.381
808.185	624.338
808.236	636.997
808.287	615.476
808.338	610.977
808.388	623.347
808.439	626.39
808.49	634.478
808.541	626.784
808.591	620.556
808.642	614.098
808.693	616.662
808.744	621.091
808.795	625.591
808.845	623.852
808.896	615.406
808.947	606.695
808.998	618.135
809.048	615.874
809.099	605.771
809.15	611.698
809.201	617.437
809.251	603.071
809.302	618.017
809.353	617.185
809.404	601.809
809.454	608.37
809.505	613.214
809.556	594.553
809.607	601.547
809.658	590.367
809.708	606.5
809.759	582.199
809.81	606.719
809.861	608.743
809.911	596.039
809.962	607.773
810.013	592.649
810.064	604.293
810.114	601.347
810.165	601.905
810.216	598.245
810.267	595.809
810.317	588.295
810.368	598.132
810.419	579.692
810.469	598.599
810.52	593.421
810.571	590.267
810.622	585.571
810.627	585
810.678	591
810.729	584
810.78	588
810.831	568
810.882	594
810.933	617
810.984	579
811.035	565
811.086	582
811.137	580
811.188	582
811.239	591
811.29	577
811.341	587
811.392	606
811.443	558
811.494	578
811.545	575
811.596	567
811.648	553
811.699	572
811.75	561
811.801	577
811.852	589
811.903	578
811.954	572
812.005	572
812.056	559
812.107	571
812.158	568
812.209	565
812.26	543
812.311	552
812.362	552
812.413	576
812.464	550
812.515	571
812.566	571
812.617	564
812.668	558
812.719	566
812.77	569
812.821	570
812.872	556
812.923	537
812.974	558
813.025	559
813.076	538
813.127	553
813.178	555
813.229	524
813.28	546
813.331	530
813.382	550
813.433	545
813.484	549
813.535	541
813.586	564
813.637	556
813.688	546
813.739	536
813.79	532
813.841	528
813.892	545
813.943	538
813.994	536
814.045	545
814.096	522
814.147	515
814.198	544
814.249	527
814.3	511
814.351	557
814.402	535
814.453	517
814.504	519
814.555	532
814.606	532
814.657	535
814.708	536
814.759	519
814.81	529
814.861	514
814.912	531
814.963	512
815.014	550
815.065	529
815.116	524
815.167	519
815.217	513
815.268	502
815.319	518
815.37	517
815.421	526
815.472	509
815.523	515
815.574	525
815.625	535
815.676	510
815.727	496
815.778	520
815.829	501
815.88	512
815.931	504
815.982	493
816.033	520
816.084	509
816.135	512
816.186	509
816.237	504
816.288	496
816.339	520
816.39	506
816.441	514
816.492	505
816.543	485
816.594	495
816.645	497
816.696	501
816.747	483
816.798	494
816.849	515
816.9	516
816.951	521
817.001	488
817.052	499
817.103	486
817.154	501
817.205	490
817.256	491
817.307	505
817.358	504
817.409	491
817.46	490
817.511	484
817.562	516
817.613	478
817.664	507
817.715	499
817.766	477
817.817	475
817.868	479
817.919	485
817.97	492
818.021	478
818.071	496
818.122	458
818.173	480
818.224	489
818.275	500
818.326	478
818.377	494
818.428	472
818.479	470
818.53	488
818.581	497
818.632	479
818.683	484
818.734	481
818.785	488
818.836	482
818.887	484
818.938	482
818.988	478
819.039	464
819.09	486
819.141	474
819.192	471
819.243	452
819.294	452
819.345	496
819.396	448
819.447	459
819.498	480
819.549	452
819.6	475
819.651	445
819.702	462
819.753	456
819.803	486
819.854	451
819.905	477
819.956	474
820.007	475
820.058	462
820.109	472
820.16	458
820.211	463
820.262	430
820.313	474
820.364	462
820.415	463
820.465	457
820.516	457
820.567	475
820.618	449
820.669	467
820.72	466
820.771	449
820.822	440
820.873	449
820.924	447
820.975	450
821.026	437
821.076	421
821.127	441
821.178	448
821.229	442
821.28	432
821.331	458
821.382	426
821.433	439
821.484	430
821.535	435
821.586	446
821.637	434
821.687	424
821.738	452
821.789	443
821.84	435
821.891	420
821.942	444
821.993	450
822.044	440
822.095	430
822.146	427
822.196	446
822.247	416
822.298	424
822.349	438
822.4	440
822.451	420
822.502	426
822.553	443
822.604	432
822.655	427
822.706	434
822.756	445
822.807	422
822.858	422
822.909	411
822.96	436
823.011	428
823.062	432
823.113	410
823.164	420
823.214	417
823.265	414
823.316	403
823.367	421
823.418	417
823.469	424
823.52	428
823.571	411
823.622	421
823.672	428
823.723	408
823.774	418
823.825	413
823.876	405
823.927	406
823.978	401
824.029	426
824.08	404
824.13	404
824.181	405
824.232	413
824.283	419
824.334	409
824.385	404
824.436	414
824.487	412
824.537	411
824.588	401
824.639	412
824.69	417
824.741	401
824.792	411
824.843	401
824.893	399
824.944	397
824.995	405
825.046	396
825.097	398
825.148	387
825.199	401
825.25	389
825.3	405
825.351	410
825.402	410
825.453	402
825.504	405
825.555	415
825.606	394
825.657	387
825.707	382
825.758	397
825.809	405
825.86	403
825.911	390
825.962	388
826.013	393
826.063	395
826.114	414
826.165	374
826.216	395
826.267	385
826.318	393
826.369	396
826.419	378
826.47	393
826.521	384
826.572	383
826.623	382
826.674	393
826.725	408
826.775	406
826.826	394
826.877	391
826.928	408
826.979	383
827.03	390
827.08	390
827.131	386
827.182	372
827.233	361
827.284	386
827.335	387
827.386	388
827.436	382
827.487	396
827.538	386
827.589	381
827.64	381
827.691	370
827.741	372
827.792	386
827.843	365
827.894	370
827.945	375
827.996	380
828.046	376
828.097	383
828.148	387
828.199	370
828.25	362
828.301	373
828.351	374
828.402	369
828.453	354
828.504	367
828.555	378
828.606	371
828.656	377
828.707	388
828.758	382
828.809	373
828.86	379
828.911	363
828.961	379
829.012	369
829.063	374
829.114	365
829.165	362
829.216	357
829.266	366
829.317	384
829.368	373
829.419	370
829.47	357
829.52	359
829.571	367
829.622	379
829.673	362
829.724	354
829.774	355
829.825	336
829.876	372
829.927	341
829.978	370
830.029	337
830.079	346
830.13	343
830.181	361
830.232	355
830.283	365
830.333	358
830.384	356
830.435	354
830.486	350
830.537	357
830.587	367
830.638	352
830.689	361
830.74	359
830.791	337
830.841	338
830.892	356
830.943	343
830.994	351
831.045	344
831.095	362
831.146	360
831.197	358
831.248	346
831.299	364
831.349	333
831.4	332
831.451	353
831.502	347
831.553	350
831.603	351
831.654	358
831.705	336
831.756	334
831.807	336
831.857	333
831.908	342
831.959	344
832.01	349
832.061	337
832.111	348
832.162	350
832.213	339
832.264	339
832.315	346
832.365	349
832.416	327
832.467	343
832.518	339
832.568	339
832.619	348
832.67	333
832.721	328
832.772	339
832.822	351
832.873	326
832.924	333
832.975	339
833.025	333
833.076	328
833.127	342
833.178	328
833.229	327
833.279	318
833.33	329
833.381	332
833.432	323
833.482	327
833.533	326
833.584	338
833.635	325
833.685	326
833.736	330
833.787	338
833.838	324
833.889	343
833.939	323
833.99	339
834.041	313
834.092	301
834.142	321
834.193	324
834.244	327
834.295	333
834.345	319
834.396	334
834.447	332
834.498	321
834.548	318
834.599	317
834.65	319
834.701	326
834.751	317
834.802	336
834.853	307
834.904	319
834.954	314
835.005	314
835.056	316
835.107	311
835.157	334
835.208	328
835.259	317
835.31	341
835.36	323
835.411	327
835.462	311
835.513	317
835.563	310
835.614	326
835.665	315
835.716	325
835.766	314
835.817	302
835.868	307
835.919	318
835.969	298
836.02	310
836.071	327
836.122	311
836.172	328
836.223	316
836.274	308
836.325	309
836.375	313
836.426	311
836.477	318
836.528	319
836.578	305
836.629	310
836.68	306
836.73	303
836.781	328
836.832	301
836.883	308
836.933	297
836.984	303
837.035	320
837.086	304
837.136	304
837.187	300
837.238	310
837.288	311
837.339	303
837.39	293
837.441	297
837.491	303
837.542	301
837.593	315
837.643	306
837.694	299
837.745	301
837.796	303
837.846	320
837.897	295
837.948	302
837.999	282
838.049	308
838.1	295
838.151	292
838.201	291
838.252	299
838.303	307
838.354	318
838.404	278
838.455	307
838.506	306
838.556	294
838.607	298
838.658	307
838.708	307
838.759	289
838.81	291
838.861	301
838.911	303
838.962	303
839.013	285
839.063	291
839.114	298
839.165	290
839.216	296
839.266	291
839.317	280
839.368	300
839.418	275
839.469	292
839.52	299
839.57	285
839.621	287
839.672	287
839.722	290
839.773	292
839.824	280
839.875	301
839.925	288
839.976	282
840.027	290
840.077	286
840.128	299
840.179	288
840.229	291
840.28	281
840.331	290
840.381	295
840.432	281
840.483	283
840.534	286
840.584	269
840.635	285
840.686	284
840.736	285
840.787	283
840.838	270
840.888	270
840.939	287
840.99	272
841.04	278
841.091	286
841.142	278
841.192	268
841.243	283
841.294	279
841.344	283
841.395	276
841.446	281
841.496	283
841.547	275
841.598	279
841.648	269
841.699	280
841.75	269
841.8	265
841.851	271
841.902	290
841.952	279
842.003	265
842.054	265
842.104	279
842.155	285
842.206	283
842.256	280
842.307	267
842.358	277
842.408	286
842.459	272
842.51	271
842.56	268
842.611	275
842.662	270
842.712	265
842.763	265
842.814	275
842.864	277
842.915	280
842.966	279
843.016	280
843.067	273
843.118	272
843.168	265
843.219	270
843.269	255
843.32	271
843.371	273
843.421	282
843.472	271
843.523	277
843.573	271
843.624	258
843.675	267
843.725	252
843.776	284
843.827	273
843.877	252
843.928	270
843.979	274
844.029	256
844.08	260
844.13	256
844.181	254
844.232	261
844.282	246
844.333	278
844.384	276
844.434	264
844.485	255
844.536	252
844.586	260
844.637	270
844.687	255
844.738	264
844.789	270
844.839	268
844.89	258
844.941	273
844.991	258
845.042	256
845.092	255
845.143	260
845.194	266
845.244	259
845.295	246
845.346	266
845.396	246
845.447	239
845.497	258
845.548	248
845.599	271
845.649	242
845.7	265
845.75	245
845.801	271
845.852	250
845.902	258
845.953	267
846.004	251
846.054	260
846.105	250
846.155	255
846.206	257
846.257	265
846.307	254
846.358	257
846.409	264
846.459	259
846.51	253
846.56	252
846.611	248
846.661	257
846.712	252
846.763	257
846.813	243
846.864	252
846.915	250
846.965	249
847.016	248
847.066	258
847.117	235
847.168	244
847.218	243
847.269	253
847.319	245
847.37	250
847.421	239
847.471	257
847.522	238
847.572	249
847.623	237
847.674	228
847.724	254
847.775	244
847.825	236
847.876	244
847.926	233
847.977	223
848.028	236
848.078	246
848.129	236
848.179	237
848.23	242
848.281	242
848.331	235
848.382	239
848.432	242
848.483	246
848.534	247
848.584	239
848.635	245
848.685	229
848.736	230
848.786	243
848.837	247
848.888	233
848.938	251
848.989	233
849.039	247
849.09	238
849.14	228
849.191	236
849.242	229
849.292	239
849.343	237
849.393	241
849.444	237
849.494	238
849.545	245
849.596	235
849.646	229
849.697	237
849.747	223
849.798	233
849.848	223
849.899	233
849.95	232
850	223
850.051	235
850.101	239
850.152	225
850.202	224
850.253	231
850.303	228
850.354	226
850.405	234
850.455	227
850.506	228
850.556	223
850.607	233
850.657	226
850.708	233
850.758	221
850.809	234
850.86	226
850.91	222
850.961	213
851.011	213
851.062	229
851.112	221
851.163	230
851.213	221
851.264	230
851.314	239
851.365	212
851.416	209
851.466	222
851.517	218
851.567	232
851.618	230
851.668	237
851.719	203
851.769	226
851.82	225
851.87	242
851.921	232
851.971	210
852.022	221
852.073	225
852.123	241
852.174	212
852.224	222
852.275	240
852.325	237.92
852.376	210.208
852.426	225.8
852.477	222.859
852.527	219.433
852.578	216.218
852.628	215.676
852.679	225.47
852.729	225.321
852.78	226.796
852.831	226.047
852.881	210.665
852.932	209.964
852.982	218.254
853.033	217.302
853.083	214.158
853.134	208.495
853.184	208.023
853.235	219.671
853.285	219.529
853.336	207.392
853.386	205.226
853.437	215.893
853.487	223.19
853.538	210.108
853.588	215.919
853.639	210.131
853.689	218.243
853.74	215.145
853.79	212.295
853.841	207.255
853.891	220.553
853.942	219.646
853.992	204.225
854.043	212.918
854.093	213.357
854.144	215.684
854.194	203.576
854.245	220.384
854.295	216.689
854.346	213.729
854.396	206.413
854.447	215.531
854.497	218.851
854.548	213.42
854.598	215.84
854.649	208.824
854.699	204.15
854.75	208.12
854.8	197.302
854.851	214.591
854.901	207.273
854.952	215.741
855.002	211.995
855.053	214.026
855.103	207.882
855.154	201.218
855.204	204.69
855.255	201.396
855.305	203.422
855.356	200.265
855.406	204.883
855.457	205.698
855.507	208.977
855.558	207.429
855.608	209.036
855.659	205.749
855.709	209.64
855.76	206.083
855.81	209.174
855.861	200.768
855.911	207.441
855.962	200.792
856.012	197.994
856.063	197.084
856.113	199.37
856.164	201.327
856.214	206.794
856.265	201.645
856.315	198.913
856.366	198.378
856.416	199.033
856.467	193.945
856.517	190.63
856.568	193.216
856.618	191.032
856.668	195.121
856.719	201.585
856.769	200.485
856.82	200.114
856.87	196.751
856.921	194.327
856.971	195.436
857.022	195.846
857.072	200.275
857.123	200
857.173	194.127
857.224	190.45
857.274	191.204
857.325	195.704
857.352	200
857.403	218
857.453	198
857.504	198
857.555	199
857.606	198
857.656	192
857.707	193
857.758	188
857.809	201
857.859	194
857.91	189
857.961	206
858.012	204
858.063	199
858.113	194
858.164	179
858.215	183
858.266	197
858.316	189
858.367	196
858.418	192
858.469	207
858.519	198
858.57	189
858.621	187
858.672	194
858.722	189
858.773	193
858.824	198
858.875	194
858.925	175
858.976	183
859.027	196
859.078	185
859.128	189
859.179	187
859.23	178
859.281	189
859.331	185
859.382	190
859.433	190
859.483	194
859.534	186
859.585	189
859.636	192
859.686	191
859.737	186
859.788	183
859.839	192
859.889	195
859.94	191
859.991	189
860.042	194
860.092	193
860.143	179
860.194	176
860.245	188
860.295	201
860.346	178
860.397	193
860.447	178
860.498	187
860.549	184
860.6	194
860.65	193
860.701	195
860.752	182
860.802	186
860.853	180
860.904	190
860.955	179
861.005	199
861.056	184
861.107	177
861.158	185
861.208	196
861.259	173
861.31	180
861.36	175
861.411	183
861.462	177
861.513	197
861.563	188
861.614	180
861.665	190
861.715	189
861.766	181
861.817	184
861.868	179
861.918	182
861.969	184
862.02	175
862.07	164
862.121	194
862.172	170
862.223	187
862.273	179
862.324	179
862.375	177
862.425	189
862.476	171
862.527	187
862.577	180
862.628	171
862.679	175
862.73	179
862.78	168
862.831	181
862.882	173
862.932	193
862.983	178
863.034	176
863.084	173
863.135	181
863.186	177
863.237	172
863.287	178
863.338	179
863.389	184
863.439	190
863.49	171
863.541	182
863.591	170
863.642	186
863.693	164
863.744	180
863.794	175
863.845	186
863.896	169
863.946	184
863.997	160
864.048	172
864.098	177
864.149	173
864.2	169
864.25	185
864.301	173
864.352	176
864.402	178
864.453	172
864.504	167
864.555	167
864.605	168
864.656	185
864.707	159
864.757	179
864.808	169
864.859	174
864.909	177
864.96	177
865.011	177
865.061	169
865.112	168
865.163	172
865.213	163
865.264	169
865.315	170
865.365	177
865.416	175
865.467	167
865.517	162
865.568	168
865.619	160
865.669	166
865.72	169
865.771	177
865.821	170
865.872	169
865.923	164
865.973	175
866.024	166
866.075	164
866.125	165
866.176	174
866.227	180
866.277	175
866.328	173
866.379	168
866.429	169
866.48	171
866.531	170
866.581	171
866.632	173
866.683	162
866.733	170
866.784	170
866.835	171
866.885	167
866.936	165
866.987	163
867.037	168
867.088	162
867.138	157
867.189	164
867.24	165
867.29	169
867.341	170
867.392	166
867.442	163
867.493	179
867.544	169
867.594	167
867.645	165
867.696	164
867.746	161
867.797	155
867.848	164
867.898	167
867.949	159
867.999	163
868.05	160
868.101	159
868.151	153
868.202	160
868.253	172
868.303	160
868.354	159
868.405	169
868.455	159
868.506	164
868.556	153
868.607	150
868.658	163
868.708	161
868.759	157
868.81	162
868.86	151
868.911	142
868.961	162
869.012	157
869.063	163
869.113	169
869.164	163
869.215	162
869.265	151
869.316	159
869.367	160
869.417	176
869.468	166
869.518	159
869.569	155
869.62	171
869.67	169
869.721	157
869.771	158
869.822	152
869.873	158
869.923	159
869.974	146
870.025	153
870.075	153
870.126	149
870.176	166
870.227	153
870.278	156
870.328	152
870.379	145
870.43	158
870.48	150
870.531	150
870.581	156
870.632	150
870.683	152
870.733	160
870.784	155
870.834	157
870.885	164
870.936	153
870.986	155
871.037	144
871.087	153
871.138	153
871.189	157
871.239	153
871.29	158
871.34	144
871.391	161
871.442	150
871.492	153
871.543	162
871.593	152
871.644	155
871.695	157
871.745	153
871.796	141
871.846	155
871.897	147
871.948	152
871.998	153
872.049	150
872.099	145
872.15	144
872.201	148
872.251	145
872.302	164
872.352	144
872.403	139
872.453	153
872.504	144
872.555	150
872.605	144
872.656	148
872.706	142
872.757	145
872.808	143
872.858	157
872.909	151
872.959	143
873.01	143
873.06	150
873.111	143
873.162	146
873.212	145
873.263	141
873.313	149
873.364	136
873.415	141
873.465	144
873.516	152
873.566	151
873.617	153
873.667	144
873.718	145
873.769	141
873.819	151
873.87	151
873.92	147
873.971	153
874.021	137
874.072	142
874.123	148
874.173	140
874.224	149
874.274	135
874.325	154
874.375	141
874.426	152
874.477	138
874.527	140
874.578	141
874.628	141
874.679	140
874.729	152
874.78	142
874.83	136
874.881	133
874.932	147
874.982	135
875.033	147
875.083	137
875.134	147
875.184	153
875.235	151
875.285	147
875.336	147
875.387	138
875.437	135
875.488	141
875.538	142
875.589	145
875.639	132
875.69	137
875.74	152
875.791	139
875.841	152
875.892	140
875.943	151
875.993	144
876.044	138
876.094	143
876.145	144
876.195	140
876.246	145
876.296	145
876.347	142
876.397	141
876.448	144
876.499	136
876.549	154
876.6	134
876.65	145
876.701	146
876.751	138
876.802	136
876.852	136
876.903	136
876.953	143
877.004	134
877.054	140
877.105	142
877.155	142
877.206	142
877.257	143
877.307	128
877.358	149
877.408	135
877.459	139
877.509	132
877.56	145
877.61	136
877.661	133
877.711	131
877.762	140
877.812	141
877.863	135
877.913	140
877.964	143
878.014	129
878.065	140
878.115	129
878.166	148
878.216	136
878.267	141
878.318	130
878.368	132
878.419	128
878.469	132
878.52	136
878.57	139
878.621	127
878.671	130
878.722	130
878.772	144
878.823	139
878.873	143
878.924	137
878.974	139
879.025	129
879.075	140
879.126	125
879.176	133
879.227	131
879.277	135
879.328	131
879.378	137
879.429	137
879.479	141
879.53	140
879.58	139
879.631	136
879.681	133
879.732	139
879.782	138
879.833	135
879.883	138
879.934	132
879.984	127
880.035	133
880.085	134
880.136	134
880.186	136
880.237	130
880.287	132
880.338	135
880.388	135
880.439	129
880.489	125
880.54	127
880.59	137
880.641	133
880.691	125
880.742	131
880.792	136
880.842	122
880.893	117
880.943	138
880.994	131
881.044	129
881.095	129
881.145	127
881.196	131
881.246	129
881.297	133
881.347	123
881.398	139
881.448	132
881.499	136
881.549	134
881.6	136
881.65	129
881.701	132
881.751	126
881.802	134
881.852	129
881.902	128
881.953	124
882.003	126
882.054	132
882.104	115
882.155	120
882.205	135
882.256	122
882.306	119
882.357	129
882.407	122
882.458	118
882.508	124
882.559	128
882.609	113
882.659	135
882.71	131
882.76	137
882.811	134
882.861	130
882.912	129
882.962	132
883.013	130
883.063	121
883.114	125
883.164	110
883.214	116
883.265	126
883.315	121
883.366	120
883.416	123
883.467	130
883.517	119
883.568	117
883.618	111
883.669	113
883.719	113
883.769	115
883.82	122
883.87	127
883.921	109
883.971	125
884.022	130
884.072	114
884.123	118
884.173	111
884.223	120
884.274	114
884.324	113
884.375	115
884.425	129
884.476	119
884.526	118
884.577	122
884.627	128
884.677	118
884.728	120
884.778	114
884.829	118
884.879	126
884.93	111
884.98	123
885.03	121
885.081	119
885.131	132
885.182	118
885.232	119
885.283	122
885.333	117
885.383	117
885.434	122
885.484	120
885.535	115
885.585	121
885.635	121
885.686	116
885.736	108
885.787	112
885.837	114
885.888	117
885.938	119
885.988	119
886.039	124
886.089	119
886.14	122
886.19	118
886.241	105
886.291	120
886.341	113
886.392	110
886.442	117
886.493	112
886.543	114
886.593	116
886.644	109
886.694	114
886.745	117
886.795	113
886.845	108
886.896	112
886.946	120
886.997	115
887.047	124
887.097	121
887.148	116
887.198	116
887.249	117
887.299	121
887.349	113
887.4	109
887.45	109
887.501	120
887.551	109
887.602	113
887.652	104
887.702	109
887.753	111
887.803	119
887.853	110
887.904	110
887.954	115
888.005	114
888.055	110
888.105	118
888.156	109
888.206	120
888.257	107
888.307	108
888.357	102
888.408	115
888.458	109
888.509	105
888.559	110
888.609	117
888.66	90
888.71	111
888.76	104
888.811	118
888.861	99
888.912	119
888.962	102
889.012	115
889.063	104
889.113	109
889.163	108
889.214	110
889.264	115
889.315	118
889.365	106
889.415	113
889.466	103
889.516	102
889.566	108
889.617	110
889.667	113
889.718	107
889.768	113
889.818	108
889.869	108
889.919	112
889.969	115
890.02	117
890.07	109
890.12	111
890.171	99
890.221	110
890.272	98
890.322	110
890.372	103
890.423	100
890.473	106
890.523	107
890.574	102
890.624	117
890.674	105
890.725	116
890.775	95
890.826	113
890.876	108
890.926	113
890.977	101
891.027	116
891.077	105
891.128	104
891.178	107
891.228	91
891.279	111
891.329	107
891.379	106
891.43	102
891.48	103
891.53	101
891.581	101
891.631	98
891.681	104
891.732	100
891.782	98
891.832	105
891.883	106
891.933	101
891.983	96
892.034	107
892.084	104
892.134	106
892.185	106
892.235	107
892.286	106
892.336	105
892.386	95
892.437	106
892.487	102
892.537	106
892.587	108
892.638	105
892.688	100
892.738	107
892.789	103
892.839	108
892.889	105
892.94	102
892.99	112
893.04	108
893.091	97
893.141	107
893.191	92
893.242	93
893.292	99
893.342	103
893.393	108
893.443	106
893.493	105
893.544	102
893.594	100
893.644	101
893.695	105
893.745	109
893.795	95
893.846	103
893.896	99
893.946	100
893.996	100
894.047	94
894.097	109
894.147	108
894.198	101
894.248	100
894.298	91
894.349	101
894.399	109
894.449	98
894.5	87
894.55	101
894.6	87
894.65	111
894.701	95
894.751	99
894.801	95
894.852	101
894.902	91
894.952	98
895.003	90
895.053	102
895.103	93
895.153	104
895.204	89
895.254	91
895.304	93
895.355	94
895.405	104
895.455	96
895.505	96
895.556	105
895.606	91
895.656	98
895.707	92
895.757	101
895.807	96
895.858	100
895.908	100
895.958	103
896.008	93
896.059	99
896.109	102
896.159	92
896.21	92
896.26	88
896.31	91
896.36	96
896.411	106
896.461	92
896.511	94
896.561	101
896.612	99
896.662	103
896.712	86
896.763	93
896.813	95
896.863	94
896.913	93
896.964	104
897.014	89
897.064	95
897.115	92
897.165	90
897.215	98
897.265	96
897.316	79
897.366	75
897.416	92
897.466	87
897.517	93
897.567	87
897.617	103
897.667	93
897.718	101
897.768	93
897.818	81
897.868	88
897.919	103
897.969	96
898.019	92
898.069	96
898.12	97
898.17	93
898.22	94
898.27	86
898.321	94
898.371	89
898.421	93
898.471	85
898.522	98
898.572	89
898.622	94
898.672	91
898.723	86
898.773	86
898.823	102
898.873	90
898.924	92
898.974	84
899.024	88
899.074	96
899.125	92
899.175	88
899.225	87
899.275	91
899.326	90
899.376	88
899.426	95
899.476	94
899.527	89
899.577	93
899.627	88
899.677	78
899.728	90
899.778	87
899.828	91
899.878	90
899.928	94
899.979	90
