#Acq. time (s)=	3
#Accumulations=	2
#Range (nm)=	520...900
#Windows=	8
#Auto scanning=	Off
#Autofocus=	Off
#AutoExposure=	Off
#Spike filter=	Multiple accum.
#Delay time (s)=	0
#Binning=	1
#Readout mode=	Signal
#DeNoise=	Off
#ICS correction=	Off
#Dark correction=	Off
#Inst. Process=	Off
#Detector temperature (°C)=	-59.98
#Instrument=	LabRAM HR Evol
#Detector=	Syncerity OE
#Objective=	x50_VIS
#Grating=	600 (500nm)
#ND Filter=	25%
#Laser=	514nm_Edge
#Hole=	199.981
#Range=	Auto
#StageXY=	Marzhauser
#StageZ=	Marzhauser
#X (µm)=	-51.3
#Y (µm)=	6302
#Z (µm)=	-7
#Full time(mm:ss)=	1:32
#Project=	
#Sample=	
#Site=	
#Title=	PL_M4_180324
#Remark=	
#Date=	28.03.2024 09:20
#Acquired=	28.03.2024 09:20:04
520.044	36
520.097	36
520.149	40
520.201	44
520.254	40
520.306	38
520.359	38
520.411	38
520.464	36
520.516	34
520.569	40
520.621	40
520.674	34
520.726	46
520.778	40
520.831	34
520.883	28
520.936	42
520.988	44
521.041	40
521.093	42
521.146	42
521.198	44
521.25	38
521.303	40
521.355	44
521.408	40
521.46	38
521.513	36
521.565	42
521.617	40
521.67	42
521.722	36
521.775	44
521.827	44
521.88	46
521.932	30
521.984	48
522.037	42
522.089	44
522.142	32
522.194	42
522.247	48
522.299	36
522.352	34
522.404	42
522.456	36
522.509	40
522.561	34
522.614	46
522.666	40
522.719	38
522.771	40
522.823	50
522.876	48
522.928	40
522.981	34
523.033	40
523.086	46
523.138	42
523.19	34
523.243	38
523.295	48
523.348	46
523.4	38
523.453	40
523.505	46
523.557	40
523.61	40
523.662	44
523.715	46
523.767	40
523.82	38
523.872	34
523.924	42
523.977	42
524.029	36
524.082	48
524.134	42
524.186	34
524.239	34
524.291	36
524.344	46
524.396	44
524.449	46
524.501	54
524.553	42
524.606	46
524.658	36
524.711	48
524.763	46
524.815	46
524.868	36
524.92	42
524.973	40
525.025	42
525.078	36
525.13	40
525.182	48
525.235	44
525.287	36
525.34	48
525.392	36
525.444	38
525.497	36
525.549	42
525.602	46
525.654	32
525.706	36
525.759	52
525.811	46
525.864	30
525.916	38
525.969	40
526.021	38
526.073	38
526.126	42
526.178	46
526.231	42
526.283	32
526.335	46
526.388	46
526.44	46
526.493	44
526.545	34
526.597	52
526.65	44
526.702	30
526.755	38
526.807	34
526.859	50
526.912	34
526.964	38
527.017	44
527.069	50
527.121	34
527.174	42
527.226	46
527.279	50
527.331	44
527.383	34
527.436	56
527.488	48
527.54	40
527.593	40
527.645	42
527.698	52
527.75	44
527.802	40
527.855	52
527.907	42
527.96	46
528.012	38
528.064	44
528.117	48
528.169	44
528.222	38
528.274	46
528.326	42
528.379	48
528.431	48
528.484	46
528.536	48
528.588	40
528.641	36
528.693	50
528.745	50
528.798	40
528.85	38
528.903	48
528.955	46
529.007	46
529.06	38
529.112	46
529.164	44
529.217	44
529.269	38
529.322	42
529.374	44
529.426	46
529.479	38
529.531	44
529.584	46
529.636	44
529.688	42
529.741	44
529.793	42
529.845	44
529.898	38
529.95	46
530.003	54
530.055	46
530.107	38
530.16	42
530.212	44
530.264	48
530.317	44
530.369	50
530.422	48
530.474	42
530.526	32
530.579	40
530.631	50
530.683	40
530.736	34
530.788	48
530.841	50
530.893	40
530.945	42
530.998	46
531.05	48
531.102	50
531.155	36
531.207	54
531.259	46
531.312	48
531.364	48
531.417	48
531.469	52
531.521	34
531.574	42
531.626	60
531.678	44
531.731	50
531.783	38
531.835	52
531.888	52
531.94	40
531.992	36
532.045	46
532.097	54
532.15	50
532.202	38
532.254	42
532.307	46
532.359	44
532.411	34
532.464	50
532.516	42
532.568	50
532.621	48
532.673	56
532.726	48
532.778	50
532.83	50
532.883	50
532.935	48
532.987	48
533.04	40
533.092	48
533.144	44
533.197	42
533.249	44
533.301	52
533.354	48
533.406	52
533.458	46
533.511	46
533.563	54
533.615	44
533.668	42
533.72	58
533.773	52
533.825	56
533.877	46
533.93	44
533.982	52
534.034	58
534.087	40
534.139	46
534.191	54
534.244	64
534.296	42
534.348	56
534.401	48
534.453	54
534.505	52
534.558	64
534.61	48
534.662	64
534.715	54
534.767	66
534.819	64
534.872	64
534.924	60
534.976	64
535.029	58
535.081	58
535.133	58
535.186	66
535.238	72
535.29	58
535.343	62
535.395	58
535.447	64
535.5	78
535.552	62
535.604	64
535.657	58
535.709	72
535.761	52
535.814	62
535.866	60
535.918	62
535.971	56
536.023	60
536.075	70
536.128	56
536.18	44
536.232	64
536.285	60
536.337	58
536.389	50
536.442	48
536.494	60
536.546	58
536.599	54
536.651	58
536.703	56
536.755	62
536.808	54
536.86	52
536.912	58
536.965	58
537.017	56
537.069	60
537.122	56
537.174	62
537.226	48
537.279	58
537.331	54
537.383	56
537.436	58
537.488	60
537.54	60
537.593	58
537.645	46
537.697	60
537.75	60
537.802	60
537.854	58
537.906	70
537.959	64
538.011	54
538.063	50
538.116	54
538.168	52
538.22	54
538.273	46
538.325	56
538.377	54
538.43	60
538.482	56
538.534	56
538.586	60
538.639	52
538.691	54
538.743	64
538.796	56
538.848	56
538.9	54
538.953	60
539.005	60
539.057	60
539.109	44
539.162	70
539.214	62
539.266	62
539.319	48
539.371	64
539.423	66
539.476	62
539.528	56
539.58	72
539.633	60
539.685	72
539.737	46
539.789	52
539.842	68
539.894	64
539.946	58
539.999	68
540.051	72
540.103	68
540.155	66
540.208	64
540.26	62
540.312	64
540.365	52
540.417	66
540.469	72
540.521	64
540.574	64
540.626	58
540.678	66
540.731	64
540.783	52
540.835	58
540.888	70
540.94	70
540.992	58
541.044	66
541.097	68
541.149	64
541.201	54
541.254	82
541.306	68
541.358	66
541.41	60
541.463	76
541.515	66
541.567	72
541.62	70
541.672	62
541.724	60
541.776	74
541.829	64
541.881	72
541.933	70
541.985	66
542.038	60
542.09	66
542.142	68
542.195	72
542.247	70
542.299	72
542.351	64
542.404	64
542.456	62
542.508	70
542.56	78
542.613	72
542.665	68
542.717	66
542.77	76
542.822	68
542.874	68
542.926	86
542.979	64
543.031	78
543.083	64
543.135	74
543.188	60
543.24	82
543.292	66
543.344	80
543.397	72
543.449	70
543.501	70
543.554	84
543.606	84
543.658	80
543.71	70
543.763	72
543.815	74
543.867	84
543.919	68
543.972	68
544.024	76
544.076	82
544.128	68
544.181	90
544.233	70
544.285	86
544.337	72
544.39	78
544.442	72
544.494	86
544.547	58
544.599	82
544.651	82
544.703	82
544.755	80
544.808	78
544.86	86
544.912	70
544.965	78
545.017	90
545.069	82
545.121	88
545.174	84
545.226	84
545.278	84
545.33	88
545.383	78
545.435	86
545.487	74
545.539	90
545.591	76
545.644	96
545.696	78
545.748	80
545.8	76
545.853	88
545.905	94
545.957	90
546.009	82
546.062	84
546.114	80
546.166	90
546.218	82
546.271	90
546.323	92
546.375	84
546.427	82
546.48	84
546.532	94
546.584	96
546.636	88
546.689	94
546.741	96
546.793	102
546.845	88
546.898	98
546.95	92
547.002	100
547.054	86
547.106	100
547.159	96
547.211	110
547.263	86
547.315	96
547.368	106
547.42	104
547.472	106
547.524	98
547.577	100
547.629	104
547.681	92
547.733	94
547.785	100
547.838	104
547.89	96
547.942	98
547.994	104
548.047	106
548.099	92
548.151	106
548.203	104
548.255	116
548.308	108
548.36	112
548.412	104
548.464	114
548.517	98
548.569	98
548.621	106
548.673	104
548.725	102
548.778	110
548.83	100
548.882	112
548.934	106
548.987	94
549.039	116
549.091	116
549.143	100
549.195	112
549.248	114
549.3	118
549.352	102
549.404	108
549.456	124
549.509	108
549.561	112
549.613	116
549.665	116
549.718	124
549.77	110
549.822	120
549.874	114
549.926	124
549.979	118
550.031	122
550.083	122
550.135	130
550.187	124
550.24	134
550.292	134
550.344	134
550.396	120
550.448	122
550.501	132
550.553	126
550.605	142
550.657	124
550.709	126
550.762	144
550.814	130
550.866	136
550.918	130
550.97	162
551.023	146
551.075	156
551.127	148
551.179	160
551.231	160
551.284	168
551.336	158
551.388	176
551.44	170
551.492	178
551.545	180
551.597	194
551.649	192
551.701	190
551.753	204
551.806	220
551.858	220
551.91	228
551.962	244
552.014	276
552.067	272
552.119	322
552.171	344
552.223	420
552.275	452
552.327	612
552.38	806
552.432	1598
552.484	3298
552.536	6390
552.588	12122
552.641	22892
552.693	32090
552.745	22358
552.797	10530
552.849	3746
552.901	1496
552.954	902
553.006	656
553.058	504
553.11	404
553.162	352
553.215	318
553.267	284
553.319	278
553.371	240
553.423	226
553.475	216
553.528	214
553.58	210
553.632	202
553.684	188
553.736	180
553.788	184
553.841	182
553.893	180
553.945	170
553.997	178
554.049	186
554.102	170
554.154	168
554.206	166
554.258	174
554.31	176
554.362	174
554.414	158
554.467	178
554.519	162
554.571	166
554.623	166
554.675	168
554.727	176
554.78	168
554.832	166
554.884	164
554.936	160
554.988	152
555.04	156
555.093	182
555.145	184
555.197	160
555.249	166
555.301	164
555.353	176
555.406	168
555.458	158
555.51	168
555.562	160
555.614	164
555.666	172
555.719	158
555.771	176
555.823	164
555.875	166
555.927	164
555.979	172
556.031	164
556.084	166
556.136	178
556.188	170
556.24	176
556.292	174
556.344	184
556.396	182
556.449	166
556.501	180
556.553	172
556.605	180
556.657	182
556.709	164
556.762	178
556.814	186
556.866	180
556.918	180
556.97	196
557.022	188
557.074	196
557.127	172
557.179	188
557.231	216
557.283	186
557.335	198
557.387	196
557.439	202
557.492	190
557.544	202
557.596	198
557.648	200
557.7	198
557.752	194
557.804	218
557.856	198
557.909	196
557.961	184
558.013	190
558.065	198
558.117	210
558.169	206
558.221	200
558.273	194
558.326	190
558.378	190
558.43	222
558.482	198
558.534	200
558.586	200
558.638	206
558.691	206
558.743	202
558.795	210
558.847	192
558.899	204
558.951	204
559.003	204
559.055	226
559.108	224
559.16	194
559.212	186
559.264	218
559.316	208
559.368	198
559.42	208
559.472	220
559.525	202
559.577	210
559.629	192
559.681	230
559.733	210
559.785	220
559.837	230
559.889	216
559.941	224
559.994	200
560.046	204
560.098	212
560.15	208
560.202	214
560.254	236
560.306	226
560.358	212
560.41	228
560.463	238
560.515	258
560.567	242
560.619	242
560.671	244
560.723	240
560.775	244
560.827	226
560.879	226
560.932	240
560.984	220
561.036	228
561.088	214
561.14	242
561.192	260
561.244	238
561.296	240
561.348	246
561.4	234
561.453	258
561.505	254
561.557	256
561.609	256
561.661	244
561.713	238
561.765	242
561.817	256
561.869	256
561.921	254
561.974	258
562.026	264
562.078	258
562.13	254
562.182	268
562.234	270
562.286	264
562.338	276
562.39	278
562.442	272
562.494	254
562.547	276
562.599	268
562.651	270
562.703	262
562.755	286
562.807	292
562.859	292
562.911	296
562.963	288
563.015	284
563.067	286
563.12	286
563.172	288
563.224	286
563.276	274
563.328	290
563.38	310
563.432	300
563.484	304
563.536	286
563.588	314
563.64	310
563.692	318
563.744	310
563.797	310
563.849	334
563.901	314
563.953	336
564.005	324
564.057	352
564.109	332
564.161	324
564.213	330
564.265	344
564.317	340
564.369	314
564.421	320
564.474	340
564.526	342
564.578	328
564.63	340
564.682	344
564.734	336
564.786	330
564.838	332
564.89	336
564.942	336
564.994	326
565.046	310
565.098	330
565.15	344
565.202	316
565.255	338
565.307	340
565.359	334
565.411	324
565.463	348
565.515	342
565.567	334
565.619	326
565.671	318
565.723	338
565.775	306
565.827	342
565.879	342
565.931	328
565.983	348
566.035	348
566.087	340
566.139	366
566.192	332
566.244	356
566.296	336
566.348	370
566.4	358
566.452	348
566.504	342
566.556	348
566.608	350
566.66	386
566.712	358
566.764	356
566.816	374
566.868	380
566.92	364
566.972	366
567.024	372
567.076	366
567.128	366
567.18	390
567.232	384
567.285	386
567.337	356
567.389	398
567.441	384
567.493	360
567.545	380
567.597	392
567.649	380
567.701	368
567.753	380
567.805	394
567.857	392
567.909	382
567.961	396
568.013	404
568.065	388
568.117	417.74
568.169	376.123
568.221	419.553
568.273	391.793
568.325	403.035
568.377	414.219
568.429	405.19
568.481	388.805
568.533	403.588
568.585	402.282
568.637	436.648
568.69	420.878
568.742	415.25
568.794	409.057
568.846	425.315
568.898	427.307
568.95	418.176
569.002	420.228
569.054	422.75
569.106	417.926
569.158	422.77
569.21	427.615
569.262	444.735
569.314	419.717
569.366	428.925
569.418	424.838
569.47	415.929
569.522	431.045
569.574	452.837
569.626	427.672
569.678	431.889
569.73	450.363
569.782	438.507
569.834	456.758
569.886	456.684
569.938	451.635
569.99	456.729
570.042	443.054
570.094	451.509
570.146	463.281
570.198	465.263
570.25	459.076
570.302	471.589
570.354	467.878
570.406	471.261
570.458	480.09
570.51	486.942
570.562	486.426
570.614	478.744
570.666	482.741
570.718	499.598
570.77	494.694
570.822	493.874
570.874	503.07
570.926	519.973
570.978	520.353
571.03	506.35
571.082	517.3
571.134	517.841
571.186	519.402
571.238	527.467
571.29	527.085
571.342	551.557
571.394	546.312
571.446	544.916
571.498	548.162
571.55	552.968
571.602	566.356
571.654	561.752
571.706	565.15
571.758	572.418
571.81	565.918
571.862	572.65
571.914	573.611
571.966	615.255
572.018	595.096
572.07	607.139
572.122	593.416
572.174	609.081
572.226	635.902
572.278	633.807
572.33	631.359
572.382	647.716
572.434	641.547
572.486	663.917
572.538	638.918
572.59	672.715
572.642	683.202
572.694	687.768
572.746	680.831
572.798	707.612
572.85	689.873
572.902	691.185
572.954	724.267
573.006	745.45
573.058	733.945
573.11	741.579
573.162	753.675
573.214	783.315
573.266	776.735
573.312	810
573.364	806
573.416	822
573.469	828
573.521	826
573.573	860
573.625	862
573.677	894
573.73	886
573.782	898
573.834	902
573.886	892
573.938	928
573.991	976
574.043	978
574.095	990
574.147	1012
574.199	1028
574.252	1018
574.304	1042
574.356	1056
574.408	1074
574.46	1120
574.513	1124
574.565	1102
574.617	1126
574.669	1192
574.721	1182
574.774	1220
574.826	1192
574.878	1288
574.93	1260
574.982	1280
575.035	1332
575.087	1328
575.139	1356
575.191	1362
575.243	1328
575.296	1368
575.348	1406
575.4	1386
575.452	1382
575.504	1426
575.556	1432
575.609	1416
575.661	1470
575.713	1438
575.765	1478
575.817	1464
575.87	1430
575.922	1472
575.974	1442
576.026	1442
576.078	1452
576.131	1450
576.183	1440
576.235	1480
576.287	1436
576.339	1428
576.391	1436
576.444	1442
576.496	1428
576.548	1378
576.6	1382
576.652	1370
576.705	1378
576.757	1324
576.809	1340
576.861	1348
576.913	1314
576.965	1296
577.018	1268
577.07	1260
577.122	1232
577.174	1248
577.226	1254
577.279	1238
577.331	1202
577.383	1220
577.435	1198
577.487	1164
577.539	1116
577.592	1100
577.644	1144
577.696	1122
577.748	1052
577.8	1102
577.852	1078
577.905	1100
577.957	1084
578.009	1046
578.061	1060
578.113	1012
578.165	1060
578.218	1012
578.27	1054
578.322	1042
578.374	1018
578.426	1026
578.478	996
578.531	970
578.583	966
578.635	970
578.687	940
578.739	1006
578.791	948
578.844	988
578.896	976
578.948	962
579	948
579.052	956
579.104	958
579.157	950
579.209	946
579.261	924
579.313	968
579.365	946
579.417	950
579.47	934
579.522	940
579.574	940
579.626	944
579.678	958
579.73	938
579.782	944
579.835	954
579.887	916
579.939	950
579.991	966
580.043	938
580.095	930
580.148	956
580.2	940
580.252	948
580.304	948
580.356	952
580.408	928
580.46	948
580.513	962
580.565	928
580.617	940
580.669	932
580.721	956
580.773	916
580.826	938
580.878	954
580.93	948
580.982	940
581.034	962
581.086	950
581.138	952
581.191	964
581.243	922
581.295	940
581.347	954
581.399	938
581.451	986
581.503	956
581.556	962
581.608	942
581.66	1006
581.712	964
581.764	958
581.816	966
581.868	978
581.92	966
581.973	988
582.025	972
582.077	976
582.129	972
582.181	982
582.233	982
582.285	986
582.338	980
582.39	964
582.442	984
582.494	964
582.546	986
582.598	974
582.65	1000
582.703	1004
582.755	1016
582.807	1066
582.859	1004
582.911	988
582.963	1024
583.015	1002
583.067	1028
583.12	998
583.172	1014
583.224	1052
583.276	1054
583.328	1012
583.38	1022
583.432	1058
583.484	1052
583.537	1032
583.589	1048
583.641	1030
583.693	1080
583.745	1058
583.797	1064
583.849	1052
583.901	1072
583.953	1068
584.006	1090
584.058	1114
584.11	1080
584.162	1112
584.214	1094
584.266	1100
584.318	1090
584.37	1134
584.423	1124
584.475	1126
584.527	1126
584.579	1136
584.631	1112
584.683	1144
584.735	1120
584.787	1126
584.839	1180
584.892	1150
584.944	1182
584.996	1142
585.048	1158
585.1	1164
585.152	1192
585.204	1150
585.256	1194
585.308	1188
585.361	1164
585.413	1194
585.465	1206
585.517	1200
585.569	1230
585.621	1194
585.673	1180
585.725	1196
585.777	1212
585.83	1214
585.882	1230
585.934	1224
585.986	1238
586.038	1206
586.09	1216
586.142	1302
586.194	1238
586.246	1236
586.298	1244
586.351	1250
586.403	1250
586.455	1272
586.507	1228
586.559	1288
586.611	1268
586.663	1298
586.715	1282
586.767	1266
586.819	1320
586.872	1324
586.924	1276
586.976	1286
587.028	1286
587.08	1332
587.132	1308
587.184	1302
587.236	1308
587.288	1254
587.34	1292
587.392	1320
587.445	1262
587.497	1316
587.549	1304
587.601	1288
587.653	1340
587.705	1332
587.757	1302
587.809	1320
587.861	1362
587.913	1280
587.965	1324
588.018	1296
588.07	1326
588.122	1338
588.174	1320
588.226	1326
588.278	1352
588.33	1346
588.382	1350
588.434	1330
588.486	1310
588.538	1310
588.59	1338
588.642	1374
588.695	1358
588.747	1364
588.799	1348
588.851	1368
588.903	1376
588.955	1366
589.007	1352
589.059	1374
589.111	1376
589.163	1364
589.215	1338
589.267	1358
589.319	1378
589.372	1394
589.424	1384
589.476	1390
589.528	1396
589.58	1428
589.632	1374
589.684	1390
589.736	1374
589.788	1410
589.84	1362
589.892	1372
589.944	1372
589.996	1338
590.048	1322
590.101	1400
590.153	1388
590.205	1372
590.257	1346
590.309	1356
590.361	1356
590.413	1368
590.465	1342
590.517	1368
590.569	1374
590.621	1326
590.673	1372
590.725	1356
590.777	1340
590.829	1372
590.881	1356
590.933	1340
590.986	1352
591.038	1346
591.09	1336
591.142	1358
591.194	1364
591.246	1338
591.298	1372
591.35	1372
591.402	1378
591.454	1332
591.506	1344
591.558	1328
591.61	1312
591.662	1338
591.714	1348
591.766	1322
591.818	1326
591.87	1334
591.923	1366
591.975	1342
592.027	1334
592.079	1356
592.131	1322
592.183	1334
592.235	1312
592.287	1312
592.339	1338
592.391	1272
592.443	1332
592.495	1314
592.547	1288
592.599	1342
592.651	1312
592.703	1286
592.755	1302
592.807	1304
592.859	1288
592.911	1322
592.963	1330
593.015	1324
593.068	1338
593.12	1294
593.172	1322
593.224	1314
593.276	1296
593.328	1304
593.38	1312
593.432	1304
593.484	1292
593.536	1290
593.588	1320
593.64	1310
593.692	1350
593.744	1338
593.796	1322
593.848	1324
593.9	1326
593.952	1324
594.004	1364
594.056	1328
594.108	1312
594.16	1350
594.212	1326
594.264	1356
594.316	1348
594.368	1314
594.42	1348
594.472	1322
594.524	1344
594.576	1394
594.628	1332
594.68	1342
594.732	1360
594.784	1356
594.837	1314
594.889	1368
594.941	1344
594.993	1374
595.045	1336
595.097	1386
595.149	1360
595.201	1352
595.253	1372
595.305	1402
595.357	1354
595.409	1370
595.461	1390
595.513	1358
595.565	1378
595.617	1408
595.669	1356
595.721	1408
595.773	1364
595.825	1378
595.877	1406
595.929	1414
595.981	1406
596.033	1450
596.085	1410
596.137	1384
596.189	1412
596.241	1430
596.293	1420
596.345	1454
596.397	1444
596.449	1446
596.501	1434
596.553	1496
596.605	1492
596.657	1494
596.709	1482
596.761	1446
596.813	1426
596.865	1464
596.917	1462
596.969	1456
597.021	1454
597.073	1444
597.125	1460
597.177	1462
597.229	1460
597.281	1472
597.333	1422
597.385	1490
597.437	1440
597.489	1462
597.541	1462
597.593	1458
597.645	1462
597.697	1484
597.749	1476
597.801	1476
597.853	1480
597.905	1452
597.957	1454
598.009	1476
598.061	1480
598.113	1452
598.165	1472
598.217	1488
598.269	1450
598.321	1462
598.373	1452
598.425	1478
598.477	1524
598.529	1468
598.581	1490
598.633	1470
598.685	1450
598.737	1512
598.789	1516
598.841	1510
598.893	1478
598.945	1500
598.997	1518
599.049	1516
599.101	1518
599.153	1500
599.205	1490
599.257	1506
599.309	1518
599.361	1518
599.413	1478
599.465	1536
599.517	1484
599.569	1450
599.62	1524
599.672	1510
599.724	1462
599.776	1480
599.828	1482
599.88	1516
599.932	1528
599.984	1498
600.036	1496
600.088	1460
600.14	1512
600.192	1522
600.244	1532
600.296	1490
600.348	1462
600.4	1538
600.452	1510
600.504	1496
600.556	1478
600.608	1524
600.66	1520
600.712	1572
600.764	1486
600.816	1526
600.868	1530
600.92	1484
600.972	1510
601.024	1546
601.076	1496
601.128	1536
601.18	1498
601.232	1526
601.284	1556
601.335	1536
601.387	1506
601.439	1522
601.491	1544
601.543	1542
601.595	1528
601.647	1522
601.699	1500
601.751	1476
601.803	1520
601.855	1558
601.907	1530
601.959	1528
602.011	1530
602.063	1492
602.115	1514
602.167	1504
602.219	1518
602.271	1544
602.323	1518
602.375	1546
602.427	1576
602.478	1552
602.53	1530
602.582	1538
602.634	1550
602.686	1550
602.738	1514
602.79	1564
602.842	1530
602.894	1584
602.946	1532
602.998	1536
603.05	1556
603.102	1582
603.154	1556
603.206	1592
603.258	1564
603.31	1558
603.362	1550
603.413	1552
603.465	1564
603.517	1558
603.569	1558
603.621	1522
603.673	1544
603.725	1572
603.777	1510
603.829	1582
603.881	1550
603.933	1548
603.985	1562
604.037	1608
604.089	1600
604.141	1568
604.193	1552
604.244	1570
604.296	1588
604.348	1586
604.4	1546
604.452	1572
604.504	1614
604.556	1594
604.608	1608
604.66	1572
604.712	1552
604.764	1574
604.816	1596
604.868	1598
604.92	1616
604.971	1594
605.023	1560
605.075	1590
605.127	1574
605.179	1612
605.231	1540
605.283	1608
605.335	1574
605.387	1568
605.439	1578
605.491	1546
605.543	1562
605.594	1614
605.646	1526
605.698	1528
605.75	1576
605.802	1588
605.854	1586
605.906	1630
605.958	1580
606.01	1620
606.062	1572
606.114	1594
606.166	1592
606.217	1592
606.269	1548
606.321	1554
606.373	1542
606.425	1594
606.477	1548
606.529	1592
606.581	1592
606.633	1654
606.685	1586
606.737	1594
606.789	1572
606.84	1546
606.892	1572
606.944	1598
606.996	1604
607.048	1592
607.1	1604
607.152	1600
607.204	1608
607.256	1610
607.308	1584
607.359	1572
607.411	1562
607.463	1612
607.515	1606
607.567	1576
607.619	1624
607.671	1622
607.723	1596
607.775	1608
607.827	1590
607.878	1632
607.93	1620
607.982	1602
608.034	1630
608.086	1606
608.138	1612
608.19	1634
608.242	1630
608.294	1586
608.345	1632
608.397	1660
608.449	1648
608.501	1616
608.553	1592
608.605	1650
608.657	1642
608.709	1612
608.761	1652
608.812	1618
608.864	1668
608.916	1604
608.968	1674
609.02	1710
609.072	1688
609.124	1648
609.176	1658
609.228	1678
609.279	1636
609.331	1624
609.383	1632
609.435	1692
609.487	1668
609.539	1678
609.591	1688
609.643	1658
609.694	1664
609.746	1694
609.798	1672
609.85	1632
609.902	1696
609.954	1702
610.006	1702
610.058	1648
610.109	1702
610.161	1688
610.213	1680
610.265	1672
610.317	1698
610.369	1706
610.421	1700
610.473	1690
610.524	1692
610.576	1676
610.628	1738
610.68	1710
610.732	1684
610.784	1730
610.836	1722
610.887	1748
610.939	1704
610.991	1700
611.043	1690
611.095	1706
611.147	1706
611.199	1698
611.25	1652
611.302	1702
611.354	1770
611.406	1764
611.458	1748
611.51	1760
611.562	1750
611.614	1732
611.665	1748
611.717	1736
611.769	1800
611.821	1766
611.873	1762
611.925	1754
611.977	1750
612.028	1766
612.08	1756
612.132	1718
612.184	1780
612.236	1764
612.288	1758
612.339	1794
612.391	1768
612.443	1826
612.495	1784
612.547	1776
612.599	1774
612.651	1794
612.702	1798
612.754	1810
612.806	1792
612.858	1834
612.91	1764
612.962	1812
613.013	1798
613.065	1804
613.117	1814
613.169	1820
613.221	1792
613.273	1824
613.325	1816
613.376	1778
613.428	1818
613.48	1826
613.532	1790
613.584	1848
613.635	1872
613.687	1862
613.739	1852
613.791	1872
613.843	1866
613.895	1842
613.947	1846
613.998	1894
614.05	1888
614.102	1858
614.154	1856
614.206	1864
614.258	1904
614.309	1860
614.361	1838
614.413	1860
614.465	1902
614.517	1930
614.568	1848
614.62	1892
614.672	1936
614.724	1858
614.776	1882
614.828	1920
614.879	1910
614.931	1874
614.983	1932
615.035	1902
615.087	1900
615.139	1936
615.19	1918
615.242	1914
615.294	1914
615.346	1930
615.398	1892
615.449	1892
615.501	1922
615.553	1932
615.605	1944
615.657	1968
615.709	1944
615.76	1958
615.812	1960
615.864	1916
615.916	1940
615.968	1934
616.019	1967.57
616.071	1983.69
616.123	1985.56
616.175	1951.94
616.227	1941.82
616.278	1960.56
616.33	1961.72
616.382	1963.83
616.434	1964.34
616.486	1981.95
616.537	1998.58
616.589	2001.61
616.641	2021.91
616.693	2013.67
616.745	2013.19
616.797	1987.64
616.848	1991.46
616.9	2034.42
616.952	2024.57
617.004	1989.79
617.056	1996.74
617.107	1985.88
617.159	1999.07
617.211	1958.88
617.263	1951.82
617.315	2000.32
617.366	2018.42
617.418	1980.88
617.47	1998.82
617.522	2054.88
617.573	2010.4
617.625	1996.3
617.677	2042.79
617.729	2023.79
617.781	2050.88
617.832	2047.64
617.884	2024.4
617.936	2043.24
617.988	2033.2
618.04	2051.86
618.091	2033.06
618.143	2034.7
618.195	2034.29
618.247	2046.8
618.299	2043.67
618.35	2053.46
618.402	2066.55
618.454	2039.13
618.506	2084.25
618.557	2068.33
618.609	2042.71
618.661	2062.66
618.713	2072.14
618.765	2070.52
618.816	2093.58
618.868	2065.73
618.92	2082.89
618.972	2088.52
619.023	2076.36
619.075	2103.05
619.127	2087.2
619.179	2084.45
619.231	2071.42
619.282	2086.06
619.334	2073.44
619.386	2109.06
619.438	2108.99
619.49	2080.26
619.541	2090.6
619.593	2104.29
619.645	2100.21
619.697	2106.4
619.748	2120.34
619.8	2094.98
619.852	2123.12
619.904	2128.84
619.955	2110.63
620.007	2115.23
620.059	2132.32
620.111	2144.7
620.162	2145.59
620.214	2102.81
620.266	2133.35
620.318	2125.75
620.37	2140.21
620.421	2130.05
620.473	2134.25
620.525	2157.4
620.577	2152.03
620.628	2130
620.68	2111.62
620.732	2088.7
620.784	2111.09
620.835	2141.16
620.887	2128.67
620.939	2130.72
620.991	2121.9
621.042	2122.45
621.094	2095.16
621.146	2122.29
621.198	2154.33
621.249	2145.19
621.269	2138
621.321	2136
621.373	2150
621.425	2142
621.477	2132
621.529	2150
621.581	2146
621.633	2166
621.685	2136
621.737	2170
621.789	2184
621.841	2206
621.893	2134
621.945	2156
621.997	2160
622.049	2136
622.101	2150
622.153	2190
622.205	2188
622.257	2154
622.309	2170
622.361	2176
622.413	2176
622.465	2150
622.517	2178
622.569	2148
622.621	2166
622.673	2192
622.725	2206
622.776	2232
622.828	2156
622.88	2202
622.932	2192
622.984	2230
623.036	2208
623.088	2208
623.14	2180
623.192	2224
623.244	2192
623.296	2162
623.348	2248
623.4	2188
623.452	2156
623.504	2208
623.556	2222
623.608	2200
623.66	2172
623.712	2228
623.764	2206
623.816	2242
623.868	2232
623.92	2168
623.972	2228
624.024	2216
624.076	2188
624.128	2184
624.18	2216
624.232	2244
624.284	2216
624.336	2250
624.388	2262
624.44	2204
624.492	2240
624.544	2206
624.596	2258
624.648	2244
624.699	2222
624.751	2228
624.803	2238
624.855	2184
624.907	2184
624.959	2230
625.011	2232
625.063	2250
625.115	2278
625.167	2288
625.219	2194
625.271	2238
625.323	2196
625.375	2268
625.427	2246
625.479	2294
625.531	2220
625.583	2246
625.635	2228
625.687	2244
625.739	2266
625.791	2252
625.843	2272
625.895	2280
625.946	2264
625.998	2230
626.05	2308
626.102	2260
626.154	2270
626.206	2312
626.258	2354
626.31	2300
626.362	2250
626.414	2318
626.466	2314
626.518	2312
626.57	2342
626.622	2298
626.674	2312
626.726	2342
626.778	2248
626.83	2344
626.882	2366
626.934	2308
626.985	2314
627.037	2326
627.089	2296
627.141	2380
627.193	2280
627.245	2312
627.297	2348
627.349	2382
627.401	2326
627.453	2340
627.505	2328
627.557	2356
627.609	2376
627.661	2374
627.713	2352
627.765	2330
627.817	2354
627.868	2406
627.92	2358
627.972	2350
628.024	2362
628.076	2388
628.128	2370
628.18	2344
628.232	2366
628.284	2406
628.336	2440
628.388	2410
628.44	2344
628.492	2322
628.544	2462
628.596	2446
628.647	2404
628.699	2416
628.751	2412
628.803	2432
628.855	2402
628.907	2404
628.959	2450
629.011	2440
629.063	2450
629.115	2398
629.167	2484
629.219	2432
629.271	2438
629.322	2418
629.374	2438
629.426	2410
629.478	2452
629.53	2454
629.582	2446
629.634	2462
629.686	2476
629.738	2484
629.79	2446
629.842	2496
629.894	2502
629.945	2490
629.997	2378
630.049	2504
630.101	2440
630.153	2478
630.205	2502
630.257	2456
630.309	2494
630.361	2492
630.413	2480
630.465	2488
630.517	2508
630.568	2508
630.62	2538
630.672	2514
630.724	2520
630.776	2470
630.828	2534
630.88	2514
630.932	2510
630.984	2544
631.036	2460
631.088	2580
631.14	2570
631.191	2508
631.243	2578
631.295	2488
631.347	2570
631.399	2550
631.451	2586
631.503	2556
631.555	2572
631.607	2538
631.659	2624
631.71	2558
631.762	2566
631.814	2542
631.866	2592
631.918	2632
631.97	2616
632.022	2550
632.074	2618
632.126	2588
632.178	2610
632.229	2622
632.281	2604
632.333	2652
632.385	2640
632.437	2624
632.489	2596
632.541	2638
632.593	2668
632.645	2702
632.696	2608
632.748	2614
632.8	2690
632.852	2634
632.904	2676
632.956	2628
633.008	2684
633.06	2668
633.112	2690
633.164	2710
633.215	2754
633.267	2688
633.319	2694
633.371	2688
633.423	2756
633.475	2718
633.527	2726
633.579	2706
633.63	2736
633.682	2712
633.734	2714
633.786	2710
633.838	2774
633.89	2784
633.942	2784
633.994	2794
634.046	2778
634.097	2786
634.149	2824
634.201	2778
634.253	2794
634.305	2778
634.357	2798
634.409	2778
634.461	2794
634.512	2796
634.564	2782
634.616	2852
634.668	2864
634.72	2864
634.772	2914
634.824	2920
634.876	2852
634.927	2924
634.979	2894
635.031	2862
635.083	2904
635.135	2916
635.187	2928
635.239	2918
635.291	2962
635.342	2930
635.394	2928
635.446	2962
635.498	3008
635.55	3026
635.602	3000
635.654	3042
635.705	2964
635.757	3046
635.809	3068
635.861	3082
635.913	3094
635.965	3142
636.017	3178
636.068	3170
636.12	3112
636.172	3190
636.224	3216
636.276	3236
636.328	3188
636.38	3258
636.431	3300
636.483	3334
636.535	3350
636.587	3340
636.639	3398
636.691	3458
636.743	3438
636.794	3476
636.846	3560
636.898	3492
636.95	3536
637.002	3588
637.054	3660
637.106	3678
637.157	3692
637.209	3764
637.261	3752
637.313	3770
637.365	3852
637.417	3822
637.469	3846
637.52	3866
637.572	3952
637.624	4052
637.676	4096
637.728	4090
637.78	4094
637.831	4162
637.883	4096
637.935	4166
637.987	4132
638.039	4164
638.091	4220
638.143	4226
638.194	4268
638.246	4288
638.298	4168
638.35	4242
638.402	4244
638.454	4306
638.505	4316
638.557	4224
638.609	4108
638.661	4206
638.713	4140
638.765	4132
638.816	4074
638.868	4136
638.92	4094
638.972	4094
639.024	4150
639.076	4056
639.127	4046
639.179	4042
639.231	4018
639.283	3992
639.335	3952
639.387	4004
639.438	3870
639.49	3928
639.542	3828
639.594	3816
639.646	3884
639.698	3834
639.749	3788
639.801	3786
639.853	3778
639.905	3720
639.957	3724
640.008	3654
640.06	3702
640.112	3656
640.164	3680
640.216	3608
640.268	3576
640.319	3652
640.371	3638
640.423	3630
640.475	3592
640.527	3584
640.578	3560
640.63	3492
640.682	3572
640.734	3544
640.786	3566
640.838	3544
640.889	3488
640.941	3500
640.993	3498
641.045	3448
641.097	3528
641.148	3544
641.2	3556
641.252	3504
641.304	3436
641.356	3530
641.408	3448
641.459	3528
641.511	3468
641.563	3460
641.615	3456
641.667	3568
641.718	3502
641.77	3468
641.822	3502
641.874	3450
641.926	3454
641.977	3482
642.029	3494
642.081	3424
642.133	3504
642.185	3432
642.236	3426
642.288	3446
642.34	3452
642.392	3484
642.444	3420
642.495	3408
642.547	3444
642.599	3488
642.651	3448
642.703	3500
642.754	3442
642.806	3462
642.858	3404
642.91	3488
642.962	3478
643.013	3460
643.065	3466
643.117	3484
643.169	3438
643.221	3522
643.272	3440
643.324	3474
643.376	3414
643.428	3486
643.479	3544
643.531	3526
643.583	3406
643.635	3508
643.687	3464
643.738	3532
643.79	3478
643.842	3528
643.894	3504
643.946	3478
643.997	3440
644.049	3512
644.101	3500
644.153	3466
644.205	3452
644.256	3536
644.308	3542
644.36	3528
644.412	3536
644.463	3570
644.515	3522
644.567	3584
644.619	3542
644.671	3500
644.722	3494
644.774	3528
644.826	3522
644.878	3526
644.929	3588
644.981	3574
645.033	3580
645.085	3630
645.136	3544
645.188	3548
645.24	3632
645.292	3564
645.344	3554
645.395	3530
645.447	3634
645.499	3578
645.551	3586
645.602	3626
645.654	3592
645.706	3602
645.758	3574
645.81	3616
645.861	3616
645.913	3644
645.965	3576
646.017	3588
646.068	3574
646.12	3588
646.172	3610
646.224	3608
646.275	3590
646.327	3602
646.379	3586
646.431	3656
646.482	3654
646.534	3642
646.586	3630
646.638	3634
646.689	3644
646.741	3698
646.793	3680
646.845	3672
646.896	3674
646.948	3654
647	3642
647.052	3668
647.104	3676
647.155	3696
647.207	3690
647.259	3698
647.31	3636
647.362	3700
647.414	3682
647.466	3690
647.518	3760
647.569	3690
647.621	3698
647.673	3662
647.724	3698
647.776	3700
647.828	3726
647.88	3696
647.931	3726
647.983	3710
648.035	3704
648.087	3782
648.138	3728
648.19	3712
648.242	3740
648.294	3776
648.345	3714
648.397	3726
648.449	3766
648.501	3816
648.552	3742
648.604	3744
648.656	3760
648.708	3752
648.759	3784
648.811	3790
648.863	3794
648.915	3762
648.966	3798
649.018	3848
649.07	3836
649.121	3850
649.173	3840
649.225	3826
649.277	3858
649.328	3798
649.38	3862
649.432	3802
649.484	3844
649.535	3838
649.587	3848
649.639	3818
649.69	3872
649.742	3882
649.794	3894
649.846	3908
649.897	3894
649.949	3864
650.001	3928
650.053	3882
650.104	3958
650.156	3896
650.208	3926
650.259	3946
650.311	3900
650.363	3924
650.415	3910
650.466	3980
650.518	3954
650.57	3942
650.621	3974
650.673	3994
650.725	3964
650.777	3964
650.828	3866
650.88	3952
650.932	3976
650.984	3968
651.035	3960
651.087	3986
651.139	4006
651.19	3996
651.242	3968
651.294	4080
651.345	4088
651.397	4070
651.449	4068
651.501	4078
651.552	4072
651.604	4076
651.656	4104
651.707	4072
651.759	4050
651.811	4120
651.863	4088
651.914	3980
651.966	4134
652.018	4108
652.069	4042
652.121	4028
652.173	4126
652.224	4130
652.276	4166
652.328	4126
652.38	4090
652.431	4070
652.483	4120
652.535	4096
652.586	4152
652.638	4200
652.69	4154
652.741	4172
652.793	4194
652.845	4154
652.897	4228
652.948	4192
653	4158
653.052	4160
653.103	4248
653.155	4200
653.207	4174
653.258	4252
653.31	4280
653.362	4234
653.413	4176
653.465	4270
653.517	4166
653.568	4246
653.62	4280
653.672	4260
653.724	4298
653.775	4282
653.827	4342
653.879	4278
653.93	4350
653.982	4344
654.034	4362
654.085	4358
654.137	4366
654.189	4350
654.24	4312
654.292	4442
654.344	4432
654.395	4348
654.447	4370
654.499	4346
654.55	4420
654.602	4364
654.654	4420
654.705	4482
654.757	4480
654.809	4460
654.86	4478
654.912	4454
654.964	4472
655.016	4460
655.067	4538
655.119	4502
655.17	4508
655.222	4490
655.274	4570
655.326	4508
655.377	4528
655.429	4510
655.481	4636
655.532	4558
655.584	4584
655.635	4618
655.687	4630
655.739	4606
655.79	4516
655.842	4688
655.894	4618
655.945	4714
655.997	4596
656.049	4634
656.1	4624
656.152	4692
656.204	4690
656.255	4630
656.307	4728
656.359	4746
656.41	4754
656.462	4786
656.514	4758
656.565	4756
656.617	4732
656.669	4770
656.72	4796
656.772	4784
656.824	4738
656.875	4776
656.927	4772
656.979	4768
657.03	4890
657.082	4892
657.134	4810
657.185	4870
657.237	4924
657.288	4852
657.34	4904
657.392	4956
657.443	4912
657.495	4956
657.547	4912
657.598	4928
657.65	4898
657.702	4922
657.753	4960
657.805	4894
657.857	4964
657.908	4890
657.96	5052
658.011	4986
658.063	5036
658.115	4958
658.166	4972
658.218	4934
658.27	5062
658.321	4978
658.373	5072
658.425	5060
658.476	5154
658.528	5020
658.579	5076
658.631	5062
658.683	5024
658.734	5174
658.786	5018
658.838	5036
658.889	5102
658.941	5060
658.992	5102
659.044	5090
659.096	5106
659.147	5138
659.199	5154
659.251	5060
659.302	5114
659.354	5124
659.406	5114
659.457	5090
659.509	5154
659.56	5158
659.612	5028
659.664	5064
659.715	5170
659.767	5142
659.818	5070
659.87	5132
659.922	5140
659.973	5156
660.025	5132
660.077	5124
660.128	5186
660.18	5140
660.231	5136
660.283	5136
660.335	5146
660.386	5078
660.438	5176
660.49	5102
660.541	5140
660.593	5096
660.644	5146
660.696	5126
660.748	5186
660.799	5146
660.851	5192
660.902	5088
660.954	5148
661.006	5156
661.057	5150
661.109	5132
661.16	5146
661.212	5172
661.264	5182
661.315	5110
661.367	5206
661.418	5044
661.47	5148
661.522	5120
661.573	5108
661.625	5126
661.676	5166
661.728	5110
661.78	5208
661.831	5190
661.883	5136
661.934	5164
661.986	5118
662.038	5214
662.089	5114
662.141	5116
662.192	5132
662.244	5156
662.296	5180
662.347	5108
662.399	5150
662.45	5104
662.502	5136
662.554	5112
662.605	5178
662.657	5148
662.708	5146
662.76	5182
662.811	5130
662.863	5120
662.915	5090
662.966	5178
663.018	5074
663.069	5052
663.121	5130
663.173	5152
663.224	5178
663.276	5152
663.327	5190
663.379	5142
663.43	5034
663.482	5116
663.534	5186
663.585	5192
663.637	5158
663.688	5144
663.74	5140.26
663.792	5113.46
663.843	5091.25
663.895	5115.93
663.946	5179.68
663.998	5133.77
664.049	5092.04
664.101	5162.32
664.153	5145.38
664.204	5190.72
664.256	5177.05
664.307	5153.79
664.359	5147.27
664.41	5108.62
664.462	5153.1
664.513	5145.63
664.565	5159.46
664.617	5170.52
664.668	5155.47
664.72	5137.53
664.771	5200.39
664.823	5171.13
664.874	5157.05
664.926	5131.99
664.978	5114.35
665.029	5134.36
665.081	5148.82
665.132	5106.21
665.184	5161.76
665.235	5131.28
665.287	5142.03
665.339	5180.15
665.39	5166.39
665.442	5183.73
665.493	5162.6
665.545	5144.51
665.596	5149.15
665.648	5146.18
665.699	5115.94
665.751	5192.99
665.802	5212.72
665.854	5156.34
665.906	5087.58
665.957	5111.66
666.009	5103.39
666.06	5128.64
666.112	5191.3
666.163	5188.59
666.215	5142.99
666.266	5156.26
666.318	5149
666.37	5149.65
666.421	5145.02
666.473	5125.22
666.524	5137.93
666.576	5140.74
666.627	5155.55
666.679	5167.61
666.73	5162.18
666.782	5091.37
666.833	5137.36
666.885	5130.82
666.937	5155.14
666.988	5130.15
667.04	5137.78
667.091	5183.29
667.143	5150.61
667.194	5148.86
667.246	5131.21
667.297	5154.61
667.349	5121.08
667.4	5158.72
667.452	5179.92
667.503	5159.61
667.555	5141.25
667.607	5130.88
667.658	5164.75
667.71	5128.93
667.761	5138.58
667.813	5157.47
667.864	5116.6
667.916	5152.65
667.967	5162.59
668.019	5151.92
668.07	5118.64
668.122	5132.04
668.173	5110.68
668.225	5181.89
668.276	5172.1
668.328	5139.38
668.379	5141.44
668.431	5143.82
668.482	5153.69
668.534	5154.53
668.586	5137.66
668.637	5151.1
668.689	5164.78
668.74	5087.63
668.792	5135.62
668.843	5149.03
668.895	5147.6
668.935	5188
668.987	5212
669.038	5164
669.09	5154
669.142	5054
669.194	5166
669.245	5174
669.297	5064
669.349	5124
669.401	5122
669.453	5140
669.504	5182
669.556	5196
669.608	5154
669.66	5198
669.711	5168
669.763	5172
669.815	5088
669.867	5116
669.918	5128
669.97	5132
670.022	5112
670.074	5162
670.125	5130
670.177	5100
670.229	5124
670.281	5158
670.332	5156
670.384	5154
670.436	5156
670.488	5194
670.539	5096
670.591	5134
670.643	5084
670.695	5148
670.747	5084
670.798	5110
670.85	5192
670.902	5166
670.953	5148
671.005	5140
671.057	5038
671.109	5172
671.161	5164
671.212	5132
671.264	5136
671.316	5204
671.367	5188
671.419	5116
671.471	5126
671.523	5144
671.575	5120
671.626	5150
671.678	5168
671.73	5112
671.781	5150
671.833	5194
671.885	5114
671.937	5142
671.988	5110
672.04	5138
672.092	5060
672.144	5232
672.195	5214
672.247	5152
672.299	5214
672.351	5120
672.402	5136
672.454	5172
672.506	5132
672.558	5196
672.609	5202
672.661	5204
672.713	5150
672.765	5200
672.816	5238
672.868	5162
672.92	5218
672.971	5242
673.023	5196
673.075	5228
673.127	5198
673.178	5232
673.23	5280
673.282	5200
673.334	5262
673.385	5220
673.437	5290
673.489	5260
673.54	5158
673.592	5244
673.644	5172
673.696	5270
673.747	5288
673.799	5296
673.851	5308
673.903	5308
673.954	5304
674.006	5290
674.058	5328
674.109	5280
674.161	5288
674.213	5320
674.265	5386
674.316	5308
674.368	5350
674.42	5300
674.471	5318
674.523	5340
674.575	5320
674.627	5378
674.678	5336
674.73	5356
674.782	5360
674.833	5384
674.885	5414
674.937	5356
674.989	5384
675.04	5374
675.092	5360
675.144	5376
675.195	5412
675.247	5386
675.299	5406
675.351	5454
675.402	5476
675.454	5426
675.506	5434
675.557	5436
675.609	5390
675.661	5444
675.713	5408
675.764	5474
675.816	5446
675.868	5426
675.919	5486
675.971	5474
676.023	5474
676.074	5430
676.126	5508
676.178	5526
676.23	5458
676.281	5504
676.333	5452
676.385	5494
676.436	5438
676.488	5540
676.54	5512
676.591	5468
676.643	5546
676.695	5482
676.747	5472
676.798	5484
676.85	5408
676.902	5510
676.953	5362
677.005	5478
677.057	5518
677.108	5348
677.16	5486
677.212	5430
677.263	5476
677.315	5528
677.367	5448
677.419	5492
677.47	5532
677.522	5486
677.574	5518
677.625	5464
677.677	5530
677.729	5452
677.78	5474
677.832	5498
677.884	5502
677.935	5502
677.987	5490
678.039	5486
678.091	5514
678.142	5548
678.194	5512
678.246	5470
678.297	5518
678.349	5512
678.401	5446
678.452	5432
678.504	5506
678.556	5450
678.607	5506
678.659	5468
678.711	5484
678.762	5428
678.814	5476
678.866	5514
678.917	5430
678.969	5506
679.021	5438
679.072	5512
679.124	5494
679.176	5502
679.227	5480
679.279	5538
679.331	5496
679.382	5566
679.434	5538
679.486	5498
679.537	5590
679.589	5490
679.641	5442
679.692	5514
679.744	5448
679.796	5590
679.847	5472
679.899	5554
679.951	5544
680.003	5568
680.054	5458
680.106	5564
680.157	5560
680.209	5552
680.261	5554
680.312	5544
680.364	5524
680.416	5594
680.467	5498
680.519	5524
680.571	5530
680.622	5532
680.674	5590
680.726	5590
680.777	5614
680.829	5590
680.881	5610
680.932	5590
680.984	5590
681.036	5666
681.087	5622
681.139	5634
681.191	5642
681.242	5616
681.294	5628
681.346	5626
681.397	5604
681.449	5630
681.501	5668
681.552	5628
681.604	5616
681.656	5670
681.707	5650
681.759	5690
681.81	5656
681.862	5674
681.914	5680
681.965	5594
682.017	5638
682.069	5672
682.12	5648
682.172	5682
682.224	5626
682.275	5604
682.327	5686
682.379	5656
682.43	5704
682.482	5630
682.533	5664
682.585	5684
682.637	5704
682.688	5650
682.74	5678
682.792	5620
682.843	5720
682.895	5664
682.947	5594
682.998	5686
683.05	5652
683.102	5646
683.153	5650
683.205	5700
683.256	5710
683.308	5616
683.36	5636
683.411	5686
683.463	5708
683.515	5698
683.566	5614
683.618	5696
683.669	5702
683.721	5658
683.773	5708
683.824	5716
683.876	5602
683.928	5744
683.979	5652
684.031	5788
684.082	5628
684.134	5600
684.186	5666
684.237	5654
684.289	5660
684.341	5542
684.392	5642
684.444	5708
684.495	5614
684.547	5660
684.599	5636
684.65	5614
684.702	5556
684.754	5608
684.805	5596
684.857	5646
684.908	5582
684.96	5596
685.012	5572
685.063	5684
685.115	5608
685.166	5572
685.218	5672
685.27	5568
685.321	5572
685.373	5564
685.424	5552
685.476	5612
685.528	5656
685.579	5674
685.631	5624
685.683	5618
685.734	5568
685.786	5584
685.837	5544
685.889	5496
685.941	5556
685.992	5608
686.044	5586
686.095	5512
686.147	5522
686.199	5494
686.25	5568
686.302	5606
686.353	5518
686.405	5578
686.457	5530
686.508	5544
686.56	5498
686.611	5540
686.663	5488
686.715	5500
686.766	5530
686.818	5592
686.869	5632
686.921	5584
686.973	5512
687.024	5536
687.076	5490
687.127	5472
687.179	5562
687.231	5542
687.282	5484
687.334	5560
687.385	5514
687.437	5504
687.489	5554
687.54	5458
687.592	5546
687.643	5554
687.695	5588
687.747	5448
687.798	5558
687.85	5540
687.901	5512
687.953	5528
688.004	5520
688.056	5540
688.108	5590
688.159	5598
688.211	5502
688.262	5536
688.314	5508
688.366	5526
688.417	5576
688.469	5436
688.52	5540
688.572	5494
688.623	5556
688.675	5504
688.727	5462
688.778	5458
688.83	5500
688.881	5554
688.933	5408
688.984	5472
689.036	5460
689.088	5530
689.139	5576
689.191	5422
689.242	5434
689.294	5496
689.346	5470
689.397	5542
689.449	5438
689.5	5498
689.552	5470
689.603	5492
689.655	5480
689.706	5464
689.758	5416
689.81	5414
689.861	5392
689.913	5462
689.964	5408
690.016	5494
690.067	5436
690.119	5450
690.171	5520
690.222	5430
690.274	5462
690.325	5454
690.377	5510
690.428	5364
690.48	5454
690.531	5410
690.583	5482
690.635	5396
690.686	5464
690.738	5446
690.789	5430
690.841	5422
690.892	5432
690.944	5408
690.996	5328
691.047	5384
691.099	5460
691.15	5446
691.202	5372
691.253	5384
691.305	5402
691.356	5400
691.408	5314
691.459	5382
691.511	5448
691.563	5400
691.614	5398
691.666	5322
691.717	5336
691.769	5378
691.82	5362
691.872	5340
691.923	5346
691.975	5300
692.026	5334
692.078	5358
692.13	5296
692.181	5284
692.233	5366
692.284	5330
692.336	5314
692.387	5324
692.439	5358
692.49	5244
692.542	5328
692.593	5310
692.645	5340
692.697	5334
692.748	5230
692.8	5304
692.851	5298
692.903	5298
692.954	5260
693.006	5250
693.057	5300
693.109	5264
693.16	5248
693.212	5260
693.263	5328
693.315	5164
693.366	5256
693.418	5324
693.47	5260
693.521	5280
693.573	5252
693.624	5214
693.676	5200
693.727	5300
693.779	5330
693.83	5304
693.882	5288
693.933	5208
693.985	5268
694.036	5236
694.088	5188
694.139	5240
694.191	5210
694.242	5254
694.294	5164
694.345	5188
694.397	5190
694.448	5244
694.5	5296
694.552	5234
694.603	5212
694.655	5278
694.706	5232
694.758	5174
694.809	5162
694.861	5244
694.912	5204
694.964	5156
695.015	5276
695.067	5140
695.118	5144
695.17	5184
695.221	5220
695.273	5186
695.324	5186
695.376	5128
695.427	5234
695.479	5150
695.53	5266
695.582	5176
695.633	5232
695.685	5196
695.736	5166
695.788	5248
695.839	5136
695.891	5198
695.942	5190
695.994	5122
696.045	5088
696.097	5152
696.148	5146
696.2	5114
696.251	5174
696.303	5168
696.354	5202
696.406	5074
696.457	5128
696.509	5130
696.56	5226
696.612	5016
696.663	5134
696.715	5140
696.766	5104
696.818	5154
696.869	5130
696.921	5082
696.972	5128
697.024	5086
697.075	5112
697.127	5100
697.178	5164
697.23	5138
697.281	5086
697.333	5042
697.384	5068
697.436	5060
697.487	5084
697.539	5142
697.59	5066
697.642	5048
697.693	5062
697.745	5060
697.796	5056
697.847	5016
697.899	4972
697.95	5006
698.002	5072
698.053	5000
698.105	5022
698.156	5020
698.208	4976
698.259	4972
698.311	4934
698.362	5002
698.414	4966
698.465	4964
698.517	4964
698.568	4988
698.62	5016
698.671	4962
698.723	4974
698.774	4952
698.826	4952
698.877	4984
698.928	4884
698.98	4966
699.031	4972
699.083	5012
699.134	4896
699.186	4946
699.237	4938
699.289	4950
699.34	4902
699.392	4962
699.443	4874
699.495	4954
699.546	4930
699.598	4916
699.649	4812
699.7	4966
699.752	4862
699.803	4868
699.855	4892
699.906	4916
699.958	4804
700.009	4908
700.061	4818
700.112	4876
700.164	4936
700.215	4844
700.266	4864
700.318	4850
700.369	4882
700.421	4928
700.472	4918
700.524	4860
700.575	4868
700.627	4828
700.678	4874
700.73	4924
700.781	4828
700.832	4912
700.884	4836
700.935	4864
700.987	4896
701.038	4854
701.09	4846
701.141	4812
701.193	4890
701.244	4966
701.295	4840
701.347	4858
701.398	4888
701.45	4868
701.501	4824
701.553	4846
701.604	4850
701.656	4830
701.707	4886
701.758	4804
701.81	4878
701.861	4866
701.913	4844
701.964	4916
702.016	4826
702.067	4878
702.119	4918
702.17	4836
702.221	4830
702.273	4934
702.324	4818
702.376	4908
702.427	4826
702.479	4804
702.53	4844
702.581	4892
702.633	4862
702.684	4828
702.736	4828
702.787	4880
702.839	4920
702.89	4840
702.941	4872
702.993	4832
703.044	4890
703.096	4848
703.147	4830
703.199	4796
703.25	4798
703.301	4844
703.353	4850
703.404	4882
703.456	4912
703.507	4810
703.558	4880
703.61	4826
703.661	4868
703.713	4828
703.764	4816
703.816	4810
703.867	4854
703.918	4848
703.97	4780
704.021	4838
704.073	4902
704.124	4840
704.175	4820
704.227	4814
704.278	4800
704.33	4810
704.381	4826
704.432	4832
704.484	4872
704.535	4830
704.587	4862
704.638	4858
704.69	4778
704.741	4784
704.792	4732
704.844	4820
704.895	4796
704.947	4774
704.998	4752
705.049	4756
705.101	4764
705.152	4764
705.204	4766
705.255	4798
705.306	4722
705.358	4716
705.409	4704
705.461	4696
705.512	4812
705.563	4662
705.615	4736
705.666	4660
705.718	4714
705.769	4718
705.82	4708
705.872	4720
705.923	4632
705.974	4698
706.026	4710
706.077	4652
706.129	4704
706.18	4674
706.231	4674
706.283	4656
706.334	4580
706.386	4652
706.437	4696
706.488	4672
706.54	4622
706.591	4618
706.643	4572
706.694	4672
706.745	4614
706.797	4624
706.848	4638
706.899	4536
706.951	4494
707.002	4632
707.054	4604
707.105	4618
707.156	4600
707.208	4552
707.259	4630
707.31	4572
707.362	4586
707.413	4618
707.465	4598
707.516	4572
707.567	4514
707.619	4558
707.67	4576
707.721	4574
707.773	4496
707.824	4484
707.876	4564
707.927	4576
707.978	4526
708.03	4492
708.081	4538
708.132	4558
708.184	4498
708.235	4558
708.287	4554
708.338	4508
708.389	4514
708.441	4518
708.492	4542
708.543	4488
708.595	4502
708.646	4468
708.697	4552
708.749	4534
708.8	4578
708.852	4514
708.903	4530
708.954	4498
709.006	4464
709.057	4444
709.108	4502
709.16	4480
709.211	4546
709.262	4452
709.314	4488
709.365	4486
709.416	4482
709.468	4486
709.519	4474
709.57	4478
709.622	4528
709.673	4458
709.725	4370
709.776	4438
709.827	4524
709.879	4444
709.93	4456
709.981	4506
710.033	4472
710.084	4374
710.135	4422
710.187	4526
710.238	4444
710.289	4430
710.341	4444
710.392	4430
710.443	4434
710.495	4468
710.546	4390
710.597	4444
710.649	4394
710.7	4454
710.751	4430
710.803	4364
710.854	4362
710.905	4386
710.957	4458
711.008	4404
711.059	4412
711.111	4432
711.162	4374
711.213	4444
711.265	4382.34
711.316	4339.91
711.367	4389.12
711.419	4464.42
711.47	4379.6
711.521	4374
711.573	4364.67
711.624	4414.14
711.675	4375.24
711.727	4364.64
711.778	4335.21
711.829	4332.91
711.881	4378.9
711.932	4364.14
711.983	4369.72
712.035	4343.67
712.086	4345.23
712.137	4336.19
712.189	4394.88
712.24	4347.47
712.291	4324.55
712.343	4341.34
712.394	4325.48
712.445	4310.23
712.496	4272.8
712.548	4332.74
712.599	4320.16
712.65	4291.79
712.702	4303.11
712.753	4327.24
712.804	4264.95
712.856	4333.01
712.907	4254.37
712.958	4284.25
713.01	4283.27
713.061	4246.29
713.112	4297.46
713.164	4263.87
713.215	4265.39
713.266	4260.26
713.317	4244.27
713.369	4256.13
713.42	4185.96
713.471	4242.63
713.523	4245.9
713.574	4226.5
713.625	4203.57
713.677	4213.74
713.728	4172.35
713.779	4210.72
713.831	4206.46
713.882	4224.75
713.933	4169.12
713.984	4203.08
714.036	4187.45
714.087	4186.74
714.138	4185.9
714.19	4160.9
714.241	4176.76
714.292	4175.39
714.343	4127.72
714.395	4155.5
714.446	4129.36
714.497	4121.5
714.549	4113.79
714.6	4132.91
714.651	4123.94
714.703	4112.09
714.754	4083.02
714.805	4119.27
714.856	4144.82
714.908	4136.9
714.959	4104.96
715.01	4089.93
715.062	4084.7
715.113	4123.18
715.164	4111.91
715.215	4069.75
715.267	4059.61
715.318	4070.61
715.369	4093.78
715.421	4069.5
715.472	4050.56
715.523	4066.08
715.574	4072.44
715.626	4061.65
715.677	4075.22
715.728	4031.14
715.779	4048.92
715.831	4043.76
715.882	4059.12
715.933	4021.04
715.985	3982.43
716.036	4034.61
716.087	4037.14
716.138	3997.55
716.19	4061.69
716.241	4015.9
716.292	4000.58
716.343	3985.08
716.395	3995.25
716.433	3910
716.485	4046
716.536	4004
716.588	3986
716.639	3982
716.691	3932
716.742	4054
716.794	3960
716.845	3990
716.897	4028
716.948	3988
717	3994
717.052	3952
717.103	3978
717.155	3960
717.206	4004
717.258	3932
717.309	3946
717.361	3926
717.412	3956
717.464	3890
717.515	3942
717.567	3946
717.618	3938
717.67	3920
717.721	3960
717.773	3948
717.824	3910
717.876	3964
717.927	3882
717.979	3846
718.03	3918
718.082	3870
718.133	3894
718.185	3862
718.237	3918
718.288	3868
718.34	3940
718.391	3844
718.443	3898
718.494	3934
718.546	3886
718.597	3836
718.649	3812
718.7	3882
718.752	3894
718.803	3846
718.855	3914
718.906	3880
718.958	3914
719.009	3854
719.061	3828
719.112	3858
719.164	3866
719.215	3798
719.267	3826
719.318	3722
719.37	3804
719.421	3830
719.473	3796
719.524	3816
719.576	3852
719.627	3826
719.679	3808
719.73	3850
719.782	3816
719.833	3810
719.885	3732
719.936	3782
719.988	3796
720.039	3742
720.091	3800
720.142	3806
720.194	3714
720.245	3718
720.297	3720
720.348	3780
720.4	3758
720.451	3650
720.503	3678
720.554	3756
720.606	3744
720.657	3738
720.709	3744
720.76	3708
720.812	3718
720.863	3686
720.915	3702
720.966	3686
721.018	3632
721.069	3714
721.121	3640
721.172	3688
721.224	3628
721.275	3680
721.327	3596
721.378	3660
721.43	3638
721.481	3636
721.532	3674
721.584	3624
721.635	3602
721.687	3566
721.738	3600
721.79	3644
721.841	3662
721.893	3662
721.944	3558
721.996	3600
722.047	3560
722.099	3612
722.15	3640
722.202	3568
722.253	3658
722.305	3612
722.356	3562
722.408	3614
722.459	3616
722.511	3622
722.562	3582
722.614	3570
722.665	3548
722.716	3556
722.768	3612
722.819	3592
722.871	3558
722.922	3570
722.974	3526
723.025	3534
723.077	3554
723.128	3480
723.18	3512
723.231	3522
723.283	3458
723.334	3488
723.386	3462
723.437	3490
723.488	3424
723.54	3482
723.591	3490
723.643	3444
723.694	3506
723.746	3510
723.797	3498
723.849	3474
723.9	3476
723.952	3448
724.003	3520
724.055	3466
724.106	3426
724.157	3506
724.209	3476
724.26	3426
724.312	3492
724.363	3466
724.415	3438
724.466	3434
724.518	3402
724.569	3426
724.621	3448
724.672	3458
724.723	3466
724.775	3420
724.826	3374
724.878	3384
724.929	3432
724.981	3304
725.032	3402
725.084	3440
725.135	3384
725.187	3382
725.238	3422
725.289	3412
725.341	3404
725.392	3434
725.444	3450
725.495	3414
725.547	3430
725.598	3360
725.65	3368
725.701	3292
725.752	3396
725.804	3398
725.855	3420
725.907	3376
725.958	3416
726.01	3376
726.061	3350
726.112	3336
726.164	3366
726.215	3408
726.267	3304
726.318	3338
726.37	3296
726.421	3328
726.473	3348
726.524	3338
726.575	3360
726.627	3308
726.678	3276
726.73	3282
726.781	3366
726.833	3302
726.884	3260
726.935	3300
726.987	3348
727.038	3266
727.09	3232
727.141	3322
727.193	3328
727.244	3264
727.295	3308
727.347	3228
727.398	3274
727.45	3266
727.501	3298
727.552	3260
727.604	3248
727.655	3238
727.707	3210
727.758	3262
727.81	3166
727.861	3200
727.912	3292
727.964	3216
728.015	3194
728.067	3218
728.118	3198
728.17	3192
728.221	3226
728.272	3254
728.324	3178
728.375	3200
728.427	3168
728.478	3172
728.529	3214
728.581	3174
728.632	3172
728.684	3172
728.735	3108
728.786	3134
728.838	3132
728.889	3156
728.941	3152
728.992	3128
729.044	3144
729.095	3106
729.146	3066
729.198	3152
729.249	3118
729.301	3072
729.352	3046
729.403	3094
729.455	3114
729.506	3054
729.558	3032
729.609	3050
729.66	3042
729.712	3032
729.763	3042
729.815	3066
729.866	3064
729.917	3004
729.969	3070
730.02	2986
730.072	2960
730.123	3038
730.174	2962
730.226	3036
730.277	3024
730.329	3022
730.38	2984
730.431	2988
730.483	2996
730.534	2972
730.586	2960
730.637	2948
730.688	3006
730.74	2994
730.791	3010
730.842	2978
730.894	2994
730.945	2942
730.997	2960
731.048	3018
731.099	2952
731.151	2930
731.202	2960
731.254	2966
731.305	2918
731.356	2962
731.408	2954
731.459	2954
731.51	2934
731.562	2914
731.613	2954
731.665	2986
731.716	3002
731.767	2932
731.819	2954
731.87	2930
731.922	2940
731.973	2954
732.024	2912
732.076	2964
732.127	2944
732.178	2902
732.23	2912
732.281	2908
732.333	2876
732.384	2936
732.435	2918
732.487	2920
732.538	2906
732.589	2938
732.641	2902
732.692	2882
732.744	2914
732.795	2884
732.846	2908
732.898	2908
732.949	2926
733	2842
733.052	2856
733.103	2902
733.154	2886
733.206	2926
733.257	2874
733.309	2938
733.36	2774
733.411	2872
733.463	2850
733.514	2876
733.565	2916
733.617	2862
733.668	2864
733.719	2904
733.771	2874
733.822	2844
733.873	2832
733.925	2856
733.976	2886
734.028	2838
734.079	2840
734.13	2876
734.182	2880
734.233	2874
734.284	2848
734.336	2878
734.387	2870
734.438	2870
734.49	2802
734.541	2836
734.592	2894
734.644	2848
734.695	2804
734.747	2912
734.798	2858
734.849	2822
734.901	2808
734.952	2798
735.003	2840
735.055	2860
735.106	2840
735.157	2862
735.209	2844
735.26	2862
735.311	2844
735.363	2840
735.414	2820
735.465	2842
735.517	2808
735.568	2796
735.619	2840
735.671	2864
735.722	2856
735.773	2862
735.825	2888
735.876	2864
735.927	2854
735.979	2818
736.03	2824
736.081	2818
736.133	2792
736.184	2790
736.235	2838
736.287	2780
736.338	2834
736.389	2814
736.441	2834
736.492	2842
736.543	2822
736.595	2812
736.646	2822
736.697	2794
736.749	2826
736.8	2852
736.851	2916
736.903	2810
736.954	2812
737.005	2932
737.057	2894
737.108	2884
737.159	2842
737.211	2820
737.262	2862
737.313	2814
737.365	2834
737.416	2880
737.467	2900
737.518	2796
737.57	2890
737.621	2838
737.672	2816
737.724	2854
737.775	2914
737.826	2852
737.878	2898
737.929	2884
737.98	2856
738.032	2878
738.083	2850
738.134	2832
738.186	2938
738.237	2886
738.288	2854
738.339	2870
738.391	2826
738.442	2816
738.493	2880
738.545	2878
738.596	2858
738.647	2878
738.699	2804
738.75	2886
738.801	2844
738.853	2862
738.904	2884
738.955	2790
739.006	2824
739.058	2758
739.109	2828
739.16	2850
739.212	2766
739.263	2768
739.314	2806
739.366	2730
739.417	2772
739.468	2818
739.519	2762
739.571	2780
739.622	2756
739.673	2794
739.725	2766
739.776	2748
739.827	2744
739.878	2756
739.93	2698
739.981	2768
740.032	2746
740.084	2746
740.135	2730
740.186	2646
740.237	2678
740.289	2756
740.34	2676
740.391	2676
740.443	2732
740.494	2728
740.545	2720
740.596	2654
740.648	2734
740.699	2680
740.75	2726
740.802	2656
740.853	2674
740.904	2654
740.956	2666
741.007	2652
741.058	2638
741.109	2660
741.161	2638
741.212	2656
741.263	2644
741.314	2618
741.366	2674
741.417	2530
741.468	2636
741.52	2650
741.571	2600
741.622	2614
741.673	2618
741.725	2620
741.776	2654
741.827	2574
741.878	2626
741.93	2624
741.981	2628
742.032	2598
742.083	2614
742.135	2640
742.186	2588
742.237	2512
742.289	2556
742.34	2538
742.391	2572
742.442	2560
742.494	2530
742.545	2588
742.596	2542
742.647	2530
742.699	2540
742.75	2552
742.801	2530
742.852	2570
742.904	2528
742.955	2484
743.006	2528
743.057	2538
743.109	2504
743.16	2520
743.211	2564
743.263	2498
743.314	2502
743.365	2500
743.416	2498
743.468	2486
743.519	2500
743.57	2506
743.621	2496
743.672	2510
743.724	2488
743.775	2450
743.826	2506
743.878	2458
743.929	2482
743.98	2498
744.031	2462
744.083	2500
744.134	2434
744.185	2416
744.236	2474
744.287	2526
744.339	2458
744.39	2468
744.441	2478
744.492	2398
744.544	2440
744.595	2498
744.646	2404
744.697	2456
744.749	2456
744.8	2392
744.851	2398
744.902	2410
744.954	2424
745.005	2396
745.056	2408
745.107	2388
745.159	2430
745.21	2394
745.261	2416
745.312	2406
745.363	2388
745.415	2410
745.466	2398
745.517	2380
745.568	2422
745.62	2366
745.671	2386
745.722	2382
745.773	2398
745.824	2382
745.876	2338
745.927	2366
745.978	2366
746.029	2400
746.081	2372
746.132	2346
746.183	2394
746.234	2370
746.285	2390
746.337	2394
746.388	2322
746.439	2350
746.49	2310
746.542	2380
746.593	2366
746.644	2354
746.695	2342
746.746	2336
746.798	2308
746.849	2338
746.9	2324
746.951	2324
747.003	2286
747.054	2344
747.105	2328
747.156	2258
747.207	2294
747.259	2296
747.31	2334
747.361	2328
747.412	2318
747.463	2284
747.515	2290
747.566	2278
747.617	2304
747.668	2336
747.719	2326
747.771	2264
747.822	2294
747.873	2306
747.924	2322
747.975	2320
748.027	2306
748.078	2276
748.129	2262
748.18	2270
748.231	2312
748.283	2240
748.334	2300
748.385	2318
748.436	2292
748.487	2308
748.539	2250
748.59	2264
748.641	2260
748.692	2288
748.743	2254
748.795	2264
748.846	2284
748.897	2234
748.948	2278
748.999	2264
749.05	2218
749.102	2264
749.153	2186
749.204	2282
749.255	2246
749.306	2274
749.358	2186
749.409	2304
749.46	2220
749.511	2200
749.562	2244
749.614	2200
749.665	2232
749.716	2258
749.767	2246
749.818	2184
749.869	2242
749.921	2212
749.972	2184
750.023	2226
750.074	2186
750.125	2212
750.177	2218
750.228	2198
750.279	2262
750.33	2218
750.381	2212
750.432	2230
750.484	2204
750.535	2184
750.586	2186
750.637	2154
750.688	2188
750.739	2194
750.791	2196
750.842	2116
750.893	2192
750.944	2190
750.995	2162
751.046	2170
751.098	2136
751.149	2148
751.2	2164
751.251	2170
751.302	2176
751.353	2112
751.404	2132
751.456	2128
751.507	2148
751.558	2162
751.609	2102
751.66	2110
751.711	2152
751.763	2118
751.814	2112
751.865	2152
751.916	2120
751.967	2156
752.018	2106
752.07	2120
752.121	2140
752.172	2102
752.223	2074
752.274	2150
752.325	2062
752.376	2112
752.428	2128
752.479	2114
752.53	2122
752.581	2104
752.632	2094
752.683	2102
752.734	2044
752.786	2086
752.837	2070
752.888	2092
752.939	2076
752.99	2102
753.041	2106
753.092	2040
753.144	2038
753.195	2044
753.246	2036
753.297	2070
753.348	2054
753.399	2086
753.45	2068
753.502	2012
753.553	2100
753.604	2020
753.655	2030
753.706	2000
753.757	2032
753.808	2042
753.859	1990
753.911	2020
753.962	2002
754.013	2048
754.064	2072
754.115	1992
754.166	2002
754.217	2006
754.269	2002
754.32	2040
754.371	1980
754.422	2018
754.473	1996
754.524	2000
754.575	2012
754.626	2010
754.678	2028
754.729	1976
754.78	1932
754.831	2010
754.882	2016
754.933	2004
754.984	1960
755.035	1974
755.086	1992
755.138	1974
755.189	1940
755.24	1994
755.291	1940
755.342	1970
755.393	1978
755.444	1994
755.495	1962
755.547	1960
755.598	1954
755.649	1946
755.7	1976
755.751	1968
755.802	1932
755.853	1960
755.904	1948
755.955	1946
756.006	1976
756.058	1922
756.109	1936
756.16	1966
756.211	1892
756.262	1948
756.313	1898
756.364	1976
756.415	1910
756.466	1942
756.518	1928
756.569	1954
756.62	1932
756.671	1940
756.722	1914
756.773	1886
756.824	1936
756.875	1910
756.926	1952
756.977	1926
757.029	1930
757.08	1884
757.131	1870
757.182	1892
757.233	1934
757.284	1874
757.335	1880
757.386	1920
757.437	1886
757.488	1814
757.539	1890
757.59	1904
757.642	1892
757.693	1892
757.744	1902
757.795	1896
757.846	1850
757.897	1930
757.948	1858
757.999	1910
758.05	1886
758.101	1854
758.152	1868
758.203	1848
758.255	1890
758.306	1874
758.357	1818
758.408	1814
758.459	1834
758.51	1840.09
758.561	1844.14
758.612	1828.72
758.663	1821.72
758.714	1847.7
758.765	1818.58
758.816	1837.4
758.867	1826.48
758.919	1816.81
758.97	1870.07
759.021	1825.38
759.072	1808.03
759.123	1803.81
759.174	1833.21
759.225	1824.81
759.276	1806.1
759.327	1788.59
759.378	1807.51
759.429	1801.01
759.48	1823.77
759.531	1807.72
759.582	1819.67
759.633	1752.47
759.685	1778.83
759.736	1817.75
759.787	1810.27
759.838	1811.73
759.889	1766.65
759.94	1814.35
759.991	1767.97
760.042	1778.68
760.093	1742.42
760.144	1794.73
760.195	1765.07
760.246	1759.28
760.297	1767.7
760.348	1766.39
760.399	1773.69
760.45	1760.16
760.501	1778.93
760.552	1767.69
760.603	1763.59
760.655	1773.11
760.706	1777.74
760.757	1726.42
760.808	1763.48
760.859	1764.14
760.91	1751.57
760.961	1710.72
761.012	1759.18
761.063	1713.38
761.114	1758.94
761.165	1761.94
761.216	1773.27
761.267	1741.54
761.318	1719.13
761.369	1712.74
761.42	1720.83
761.471	1728.24
761.522	1719.38
761.573	1695.19
761.624	1725.64
761.675	1711.53
761.726	1716.57
761.777	1692.36
761.828	1759.16
761.88	1687.88
761.931	1698.26
761.982	1733.19
762.033	1752.85
762.084	1717.37
762.135	1703.32
762.186	1710.29
762.237	1712.79
762.288	1711.97
762.339	1703.3
762.39	1713.65
762.441	1697.03
762.492	1689.07
762.543	1699.06
762.594	1672.01
762.645	1645.73
762.696	1639.16
762.747	1679.58
762.798	1679.88
762.849	1677.2
762.9	1703.68
762.951	1680.75
763.002	1689.93
763.053	1658.7
763.104	1669.32
763.155	1639.73
763.206	1673.25
763.257	1686.02
763.308	1677.96
763.359	1642.23
763.41	1638.13
763.461	1649.51
763.512	1655.52
763.563	1638.23
763.614	1629.86
763.665	1635.79
763.678	1638
763.729	1628
763.78	1614
763.832	1598
763.883	1642
763.934	1652
763.986	1604
764.037	1638
764.088	1606
764.139	1646
764.191	1626
764.242	1654
764.293	1648
764.345	1638
764.396	1608
764.447	1608
764.498	1642
764.55	1612
764.601	1578
764.652	1608
764.704	1608
764.755	1618
764.806	1596
764.857	1582
764.909	1620
764.96	1626
765.011	1604
765.062	1628
765.114	1600
765.165	1570
765.216	1606
765.268	1624
765.319	1604
765.37	1584
765.421	1546
765.473	1568
765.524	1544
765.575	1572
765.626	1624
765.678	1522
765.729	1582
765.78	1550
765.831	1564
765.883	1562
765.934	1560
765.985	1564
766.036	1544
766.088	1558
766.139	1552
766.19	1582
766.242	1556
766.293	1548
766.344	1558
766.395	1518
766.447	1530
766.498	1552
766.549	1526
766.6	1528
766.652	1532
766.703	1512
766.754	1560
766.805	1524
766.857	1542
766.908	1538
766.959	1532
767.01	1532
767.062	1518
767.113	1490
767.164	1536
767.215	1526
767.267	1504
767.318	1524
767.369	1566
767.42	1520
767.472	1488
767.523	1534
767.574	1480
767.625	1506
767.677	1484
767.728	1496
767.779	1522
767.83	1492
767.882	1504
767.933	1500
767.984	1476
768.035	1482
768.087	1484
768.138	1478
768.189	1528
768.24	1454
768.292	1512
768.343	1484
768.394	1516
768.445	1454
768.497	1498
768.548	1488
768.599	1462
768.65	1472
768.701	1464
768.753	1500
768.804	1476
768.855	1478
768.906	1438
768.958	1466
769.009	1476
769.06	1482
769.111	1454
769.163	1442
769.214	1482
769.265	1454
769.316	1380
769.367	1450
769.419	1412
769.47	1446
769.521	1446
769.572	1468
769.624	1416
769.675	1434
769.726	1440
769.777	1396
769.828	1450
769.88	1418
769.931	1406
769.982	1428
770.033	1446
770.085	1412
770.136	1428
770.187	1418
770.238	1466
770.289	1404
770.341	1432
770.392	1420
770.443	1404
770.494	1406
770.546	1374
770.597	1386
770.648	1408
770.699	1400
770.75	1414
770.802	1360
770.853	1372
770.904	1348
770.955	1414
771.006	1364
771.058	1418
771.109	1374
771.16	1388
771.211	1368
771.263	1354
771.314	1390
771.365	1352
771.416	1402
771.467	1366
771.519	1362
771.57	1382
771.621	1376
771.672	1338
771.723	1310
771.775	1354
771.826	1318
771.877	1342
771.928	1392
771.979	1318
772.031	1312
772.082	1368
772.133	1322
772.184	1306
772.235	1264
772.287	1328
772.338	1360
772.389	1306
772.44	1296
772.491	1308
772.543	1330
772.594	1340
772.645	1298
772.696	1314
772.747	1322
772.799	1322
772.85	1322
772.901	1338
772.952	1276
773.003	1290
773.055	1318
773.106	1338
773.157	1300
773.208	1272
773.259	1282
773.31	1312
773.362	1264
773.413	1268
773.464	1270
773.515	1260
773.566	1268
773.618	1304
773.669	1280
773.72	1258
773.771	1252
773.822	1278
773.873	1268
773.925	1272
773.976	1248
774.027	1266
774.078	1228
774.129	1264
774.18	1272
774.232	1218
774.283	1210
774.334	1256
774.385	1264
774.436	1276
774.488	1258
774.539	1238
774.59	1194
774.641	1248
774.692	1216
774.743	1244
774.795	1230
774.846	1224
774.897	1222
774.948	1226
774.999	1206
775.05	1234
775.102	1186
775.153	1158
775.204	1234
775.255	1218
775.306	1232
775.357	1218
775.409	1198
775.46	1190
775.511	1222
775.562	1178
775.613	1180
775.664	1204
775.716	1216
775.767	1236
775.818	1198
775.869	1208
775.92	1204
775.971	1178
776.023	1192
776.074	1228
776.125	1178
776.176	1200
776.227	1172
776.278	1200
776.329	1186
776.381	1190
776.432	1182
776.483	1178
776.534	1154
776.585	1134
776.636	1168
776.688	1168
776.739	1190
776.79	1168
776.841	1172
776.892	1178
776.943	1180
776.994	1128
777.046	1130
777.097	1184
777.148	1140
777.199	1182
777.25	1156
777.301	1174
777.352	1116
777.404	1170
777.455	1138
777.506	1096
777.557	1162
777.608	1158
777.659	1162
777.71	1142
777.762	1116
777.813	1158
777.864	1120
777.915	1120
777.966	1128
778.017	1140
778.068	1120
778.12	1144
778.171	1146
778.222	1136
778.273	1104
778.324	1112
778.375	1126
778.426	1120
778.477	1118
778.529	1128
778.58	1080
778.631	1080
778.682	1108
778.733	1120
778.784	1104
778.835	1084
778.886	1122
778.938	1090
778.989	1078
779.04	1064
779.091	1072
779.142	1104
779.193	1088
779.244	1106
779.295	1088
779.347	1084
779.398	1092
779.449	1088
779.5	1060
779.551	1092
779.602	1086
779.653	1080
779.704	1074
779.755	1076
779.807	1066
779.858	1074
779.909	1078
779.96	1020
780.011	1048
780.062	1074
780.113	1066
780.164	1044
780.216	1064
780.267	1090
780.318	1042
780.369	1042
780.42	1044
780.471	1052
780.522	1074
780.573	1000
780.624	1044
780.675	1072
780.727	1030
780.778	1066
780.829	1042
780.88	1036
780.931	1022
780.982	1052
781.033	998
781.084	1028
781.135	1018
781.187	1030
781.238	1042
781.289	1038
781.34	1030
781.391	1018
781.442	1024
781.493	1018
781.544	1026
781.595	1026
781.646	1048
781.698	1016
781.749	1010
781.8	1010
781.851	1022
781.902	1026
781.953	1024
782.004	992
782.055	988
782.106	1018
782.157	984
782.208	990
782.26	998
782.311	1006
782.362	976
782.413	988
782.464	994
782.515	980
782.566	984
782.617	960
782.668	972
782.719	992
782.77	954
782.821	998
782.872	970
782.924	984
782.975	980
783.026	946
783.077	962
783.128	980
783.179	964
783.23	996
783.281	970
783.332	968
783.383	944
783.434	976
783.485	980
783.536	944
783.588	988
783.639	982
783.69	976
783.741	956
783.792	954
783.843	960
783.894	960
783.945	970
783.996	962
784.047	972
784.098	962
784.149	946
784.2	948
784.252	954
784.303	912
784.354	922
784.405	940
784.456	940
784.507	908
784.558	946
784.609	932
784.66	964
784.711	920
784.762	902
784.813	926
784.864	888
784.915	948
784.966	932
785.017	918
785.068	896
785.12	908
785.171	928
785.222	920
785.273	930
785.324	906
785.375	900
785.426	926
785.477	886
785.528	904
785.579	908
785.63	904
785.681	894
785.732	924
785.783	904
785.834	886
785.885	888
785.936	870
785.987	902
786.038	886
786.089	890
786.141	914
786.192	898
786.243	894
786.294	896
786.345	894
786.396	874
786.447	872
786.498	898
786.549	892
786.6	876
786.651	900
786.702	864
786.753	878
786.804	846
786.855	876
786.906	826
786.957	870
787.008	864
787.059	864
787.11	862
787.161	858
787.212	840
787.263	852
787.314	836
787.365	872
787.416	842
787.467	848
787.518	842
787.57	862
787.621	872
787.672	858
787.723	836
787.774	844
787.825	846
787.876	868
787.927	840
787.978	852
788.029	834
788.08	872
788.131	848
788.182	850
788.233	852
788.284	814
788.335	816
788.386	852
788.437	846
788.488	842
788.539	822
788.59	852
788.641	818
788.692	810
788.743	806
788.794	826
788.845	834
788.896	842
788.947	828
788.998	820
789.049	836
789.1	828
789.151	838
789.202	848
789.253	820
789.304	814
789.355	830
789.406	796
789.457	796
789.508	790
789.559	830
789.61	804
789.661	790
789.712	800
789.763	812
789.814	812
789.865	796
789.916	808
789.967	770
790.018	792
790.069	794
790.12	826
790.171	784
790.222	786
790.273	816
790.324	794
790.375	774
790.426	776
790.477	802
790.528	798
790.579	758
790.63	772
790.681	774
790.732	782
790.783	790
790.834	762
790.885	792
790.936	792
790.987	788
791.038	810
791.089	768
791.14	772
791.191	774
791.242	770
791.293	792
791.344	780
791.395	798
791.446	754
791.497	776
791.548	750
791.599	772
791.65	752
791.701	782
791.752	768
791.803	762
791.854	774
791.905	740
791.956	742
792.007	738
792.058	758
792.109	732
792.16	718
792.211	740
792.262	740
792.313	764
792.363	746
792.414	734
792.465	772
792.516	754
792.567	766
792.618	740
792.669	730
792.72	740
792.771	746
792.822	720
792.873	750
792.924	726
792.975	728
793.026	736
793.077	724
793.128	696
793.179	708
793.23	728
793.281	732
793.332	732
793.383	726
793.434	738
793.485	692
793.536	702
793.587	718
793.638	732
793.689	722
793.74	730
793.79	740
793.841	700
793.892	702
793.943	714
793.994	716
794.045	684
794.096	712
794.147	712
794.198	704
794.249	722
794.3	722
794.351	730
794.402	700
794.453	712
794.504	688
794.555	700
794.606	708
794.657	714
794.708	710
794.758	682
794.809	698
794.86	706
794.911	674
794.962	676
795.013	696
795.064	698
795.115	692
795.166	694
795.217	680
795.268	684
795.319	674
795.37	676
795.421	658
795.472	694
795.523	696
795.573	678
795.624	676
795.675	638
795.726	680
795.777	668
795.828	678
795.879	680
795.93	668
795.981	666
796.032	646
796.083	696
796.134	686
796.185	678
796.236	670
796.286	666
796.337	664
796.388	672
796.439	670
796.49	660
796.541	676
796.592	654
796.643	632
796.694	666
796.745	652
796.796	658
796.847	672
796.897	670
796.948	646
796.999	644
797.05	634
797.101	620
797.152	662
797.203	622
797.254	634
797.305	640
797.356	642
797.407	660
797.458	626
797.508	636
797.559	626
797.61	630
797.661	644
797.712	640
797.763	640
797.814	654
797.865	608
797.916	630
797.967	654
798.018	644
798.068	634
798.119	634
798.17	636
798.221	648
798.272	636
798.323	630
798.374	628
798.425	636
798.476	616
798.526	628
798.577	618
798.628	624
798.679	626
798.73	616
798.781	634
798.832	604
798.883	624
798.934	618
798.984	602
799.035	626
799.086	590
799.137	622
799.188	616
799.239	596
799.29	646
799.341	608
799.392	630
799.443	596
799.493	588
799.544	622
799.595	592
799.646	620
799.697	586
799.748	622
799.799	610
799.85	596
799.9	576
799.951	592
800.002	586
800.053	598
800.104	608
800.155	562
800.206	596
800.257	600
800.307	588
800.358	604
800.409	596
800.46	586
800.511	582
800.562	618
800.613	594
800.664	590
800.714	574
800.765	574
800.816	578
800.867	596
800.918	578
800.969	574
801.02	564
801.07	584
801.121	554
801.172	548
801.223	574
801.274	580
801.325	564
801.376	586
801.427	592
801.477	558
801.528	582
801.579	580
801.63	542
801.681	560
801.732	576
801.783	570
801.833	564
801.884	554
801.935	576
801.986	536
802.037	560
802.088	566
802.139	590
802.189	534
802.24	546
802.291	558
802.342	554
802.393	564
802.444	536
802.495	566
802.545	540
802.596	542
802.647	534
802.698	568
802.749	558
802.8	550
802.85	564
802.901	562
802.952	560
803.003	570
803.054	532
803.105	554
803.155	540
803.206	548
803.257	536
803.308	534
803.359	544
803.41	540
803.46	526
803.511	548
803.562	544
803.613	538
803.664	554
803.715	538
803.765	512
803.816	536
803.867	548
803.918	526
803.969	518
804.02	554
804.07	522
804.121	518
804.172	516
804.223	526
804.274	528
804.325	522
804.375	526
804.426	498
804.477	512
804.528	510
804.579	534
804.63	496
804.68	522
804.731	520
804.782	534
804.833	526
804.884	506
804.934	530
804.985	502
805.036	492
805.087	506
805.138	512
805.188	516
805.239	514
805.29	530
805.341	520
805.392	522
805.443	520
805.493	486.089
805.544	513.961
805.595	521.722
805.646	511.83
805.697	506.254
805.747	488.373
805.798	520.665
805.849	524.341
805.9	519.364
805.951	488.385
806.001	503.801
806.052	513.983
806.103	498.087
806.154	484.244
806.205	485.848
806.255	481.985
806.306	490.055
806.357	503.035
806.408	506.63
806.459	499.67
806.509	499.636
806.56	501.265
806.611	506.235
806.662	502.94
806.713	496.295
806.763	505.792
806.814	494.078
806.865	490.882
806.916	479.945
806.967	491.223
807.017	479.414
807.068	479.678
807.119	478.444
807.17	485.314
807.22	496.843
807.271	495.804
807.322	488.863
807.373	487.585
807.424	487.38
807.474	483.518
807.525	477.991
807.576	477.762
807.627	471.452
807.678	487.442
807.728	472.471
807.779	475.658
807.83	482.385
807.881	489.606
807.931	470.307
807.982	483.557
808.033	483.304
808.084	481.301
808.135	475.944
808.185	474.367
808.236	473.56
808.287	481.565
808.338	459.926
808.388	475.808
808.439	477.009
808.49	477.692
808.541	464.868
808.591	476.983
808.642	466.306
808.693	485.75
808.744	452.205
808.795	469.061
808.845	476.785
808.896	460.68
808.947	451.96
808.998	460.601
809.048	468.006
809.099	466
809.15	466.079
809.201	457.732
809.251	461.893
809.302	457.003
809.353	459.392
809.404	456.26
809.454	453.494
809.505	465.43
809.556	457.367
809.607	454.663
809.658	436.028
809.708	457.029
809.759	435.525
809.81	452.789
809.861	460.798
809.911	473.116
809.962	453.425
810.013	441.06
810.064	455.302
810.114	445.424
810.165	454.868
810.216	445.811
810.267	459.06
810.317	459.319
810.368	450.748
810.419	477.226
810.469	417.962
810.52	450.194
810.571	462.857
810.622	449.599
810.627	448
810.678	422
810.729	442
810.78	436
810.831	420
810.882	428
810.933	446
810.984	446
811.035	448
811.086	436
811.137	448
811.188	438
811.239	422
811.29	410
811.341	424
811.392	426
811.443	434
811.494	440
811.545	434
811.596	422
811.648	430
811.699	418
811.75	440
811.801	460
811.852	446
811.903	438
811.954	436
812.005	436
812.056	432
812.107	406
812.158	436
812.209	434
812.26	424
812.311	426
812.362	436
812.413	422
812.464	420
812.515	404
812.566	422
812.617	414
812.668	400
812.719	438
812.77	434
812.821	404
812.872	404
812.923	418
812.974	432
813.025	438
813.076	416
813.127	410
813.178	408
813.229	422
813.28	412
813.331	390
813.382	402
813.433	412
813.484	414
813.535	406
813.586	396
813.637	384
813.688	428
813.739	410
813.79	400
813.841	404
813.892	398
813.943	414
813.994	406
814.045	402
814.096	404
814.147	408
814.198	402
814.249	408
814.3	414
814.351	398
814.402	386
814.453	394
814.504	406
814.555	374
814.606	396
814.657	396
814.708	400
814.759	384
814.81	382
814.861	386
814.912	404
814.963	366
815.014	404
815.065	382
815.116	382
815.167	400
815.217	390
815.268	380
815.319	388
815.37	382
815.421	376
815.472	376
815.523	398
815.574	382
815.625	394
815.676	394
815.727	372
815.778	380
815.829	392
815.88	392
815.931	380
815.982	382
816.033	384
816.084	376
816.135	398
816.186	370
816.237	376
816.288	368
816.339	362
816.39	368
816.441	370
816.492	358
816.543	380
816.594	364
816.645	378
816.696	382
816.747	368
816.798	366
816.849	384
816.9	352
816.951	370
817.001	374
817.052	380
817.103	356
817.154	378
817.205	356
817.256	376
817.307	372
817.358	366
817.409	358
817.46	372
817.511	358
817.562	364
817.613	362
817.664	328
817.715	356
817.766	362
817.817	366
817.868	362
817.919	350
817.97	360
818.021	376
818.071	364
818.122	366
818.173	344
818.224	346
818.275	352
818.326	348
818.377	340
818.428	356
818.479	358
818.53	334
818.581	344
818.632	368
818.683	346
818.734	354
818.785	346
818.836	362
818.887	370
818.938	368
818.988	352
819.039	346
819.09	350
819.141	364
819.192	334
819.243	362
819.294	354
819.345	338
819.396	340
819.447	344
819.498	348
819.549	344
819.6	346
819.651	330
819.702	350
819.753	342
819.803	356
819.854	338
819.905	334
819.956	350
820.007	340
820.058	324
820.109	344
820.16	336
820.211	350
820.262	342
820.313	352
820.364	340
820.415	332
820.465	336
820.516	342
820.567	340
820.618	354
820.669	332
820.72	346
820.771	334
820.822	332
820.873	320
820.924	336
820.975	330
821.026	314
821.076	322
821.127	316
821.178	338
821.229	328
821.28	316
821.331	338
821.382	326
821.433	348
821.484	314
821.535	338
821.586	334
821.637	332
821.687	332
821.738	322
821.789	340
821.84	318
821.891	322
821.942	318
821.993	328
822.044	336
822.095	298
822.146	328
822.196	336
822.247	328
822.298	328
822.349	320
822.4	330
822.451	306
822.502	314
822.553	336
822.604	340
822.655	326
822.706	326
822.756	328
822.807	310
822.858	318
822.909	302
822.96	322
823.011	308
823.062	318
823.113	308
823.164	276
823.214	314
823.265	316
823.316	316
823.367	298
823.418	318
823.469	322
823.52	302
823.571	310
823.622	322
823.672	304
823.723	296
823.774	316
823.825	308
823.876	320
823.927	322
823.978	304
824.029	298
824.08	312
824.13	306
824.181	298
824.232	308
824.283	290
824.334	308
824.385	310
824.436	294
824.487	314
824.537	292
824.588	312
824.639	294
824.69	308
824.741	302
824.792	288
824.843	300
824.893	300
824.944	280
824.995	314
825.046	286
825.097	310
825.148	304
825.199	304
825.25	294
825.3	306
825.351	284
825.402	298
825.453	288
825.504	310
825.555	298
825.606	296
825.657	282
825.707	286
825.758	282
825.809	296
825.86	306
825.911	296
825.962	278
826.013	290
826.063	280
826.114	286
826.165	290
826.216	300
826.267	264
826.318	300
826.369	282
826.419	288
826.47	292
826.521	288
826.572	282
826.623	292
826.674	284
826.725	296
826.775	274
826.826	286
826.877	272
826.928	308
826.979	278
827.03	292
827.08	286
827.131	284
827.182	284
827.233	298
827.284	270
827.335	274
827.386	278
827.436	270
827.487	280
827.538	282
827.589	272
827.64	288
827.691	268
827.741	284
827.792	276
827.843	276
827.894	274
827.945	292
827.996	278
828.046	278
828.097	284
828.148	260
828.199	266
828.25	264
828.301	294
828.351	296
828.402	280
828.453	260
828.504	268
828.555	254
828.606	268
828.656	276
828.707	272
828.758	286
828.809	284
828.86	282
828.911	284
828.961	278
829.012	278
829.063	282
829.114	268
829.165	274
829.216	268
829.266	282
829.317	272
829.368	272
829.419	274
829.47	282
829.52	274
829.571	284
829.622	250
829.673	284
829.724	264
829.774	258
829.825	264
829.876	264
829.927	258
829.978	272
830.029	254
830.079	258
830.13	256
830.181	276
830.232	272
830.283	254
830.333	268
830.384	274
830.435	256
830.486	276
830.537	256
830.587	262
830.638	254
830.689	260
830.74	264
830.791	260
830.841	266
830.892	266
830.943	248
830.994	252
831.045	270
831.095	256
831.146	262
831.197	272
831.248	256
831.299	254
831.349	268
831.4	238
831.451	248
831.502	274
831.553	264
831.603	258
831.654	240
831.705	276
831.756	248
831.807	246
831.857	248
831.908	236
831.959	254
832.01	278
832.061	254
832.111	256
832.162	242
832.213	250
832.264	258
832.315	254
832.365	256
832.416	244
832.467	252
832.518	246
832.568	256
832.619	264
832.67	264
832.721	242
832.772	256
832.822	252
832.873	242
832.924	250
832.975	260
833.025	242
833.076	246
833.127	252
833.178	248
833.229	252
833.279	228
833.33	258
833.381	230
833.432	240
833.482	260
833.533	246
833.584	228
833.635	248
833.685	230
833.736	244
833.787	228
833.838	232
833.889	242
833.939	240
833.99	246
834.041	248
834.092	232
834.142	248
834.193	220
834.244	214
834.295	228
834.345	242
834.396	236
834.447	230
834.498	240
834.548	250
834.599	236
834.65	236
834.701	236
834.751	244
834.802	232
834.853	246
834.904	222
834.954	236
835.005	240
835.056	222
835.107	230
835.157	232
835.208	236
835.259	258
835.31	236
835.36	220
835.411	218
835.462	222
835.513	226
835.563	230
835.614	228
835.665	240
835.716	228
835.766	238
835.817	234
835.868	214
835.919	224
835.969	238
836.02	224
836.071	242
836.122	204
836.172	226
836.223	234
836.274	230
836.325	226
836.375	222
836.426	218
836.477	238
836.528	228
836.578	236
836.629	234
836.68	220
836.73	224
836.781	222
836.832	206
836.883	244
836.933	222
836.984	222
837.035	218
837.086	230
837.136	228
837.187	226
837.238	220
837.288	230
837.339	226
837.39	212
837.441	226
837.491	222
837.542	212
837.593	232
837.643	210
837.694	232
837.745	224
837.796	222
837.846	204
837.897	224
837.948	226
837.999	220
838.049	224
838.1	228
838.151	218
838.201	222
838.252	212
838.303	214
838.354	222
838.404	220
838.455	200
838.506	222
838.556	218
838.607	240
838.658	210
838.708	210
838.759	206
838.81	222
838.861	204
838.911	230
838.962	222
839.013	212
839.063	210
839.114	212
839.165	212
839.216	218
839.266	228
839.317	224
839.368	206
839.418	216
839.469	208
839.52	204
839.57	204
839.621	220
839.672	216
839.722	216
839.773	204
839.824	214
839.875	220
839.925	216
839.976	214
840.027	214
840.077	216
840.128	212
840.179	212
840.229	220
840.28	216
840.331	212
840.381	214
840.432	204
840.483	204
840.534	212
840.584	210
840.635	196
840.686	182
840.736	206
840.787	194
840.838	216
840.888	202
840.939	212
840.99	206
841.04	190
841.091	204
841.142	194
841.192	214
841.243	214
841.294	204
841.344	210
841.395	210
841.446	214
841.496	200
841.547	198
841.598	194
841.648	204
841.699	200
841.75	214
841.8	212
841.851	208
841.902	186
841.952	188
842.003	210
842.054	206
842.104	206
842.155	204
842.206	210
842.256	202
842.307	202
842.358	194
842.408	196
842.459	198
842.51	196
842.56	182
842.611	196
842.662	184
842.712	198
842.763	202
842.814	196
842.864	204
842.915	196
842.966	212
843.016	200
843.067	194
843.118	196
843.168	196
843.219	190
843.269	194
843.32	200
843.371	204
843.421	200
843.472	208
843.523	200
843.573	186
843.624	194
843.675	196
843.725	202
843.776	194
843.827	196
843.877	192
843.928	196
843.979	198
844.029	202
844.08	196
844.13	184
844.181	198
844.232	200
844.282	198
844.333	200
844.384	198
844.434	194
844.485	202
844.536	198
844.586	198
844.637	184
844.687	180
844.738	178
844.789	186
844.839	176
844.89	192
844.941	186
844.991	210
845.042	192
845.092	190
845.143	182
845.194	194
845.244	186
845.295	186
845.346	184
845.396	198
845.447	192
845.497	198
845.548	190
845.599	194
845.649	178
845.7	186
845.75	194
845.801	188
845.852	190
845.902	190
845.953	194
846.004	188
846.054	170
846.105	166
846.155	190
846.206	182
846.257	188
846.307	188
846.358	188
846.409	190
846.459	174
846.51	180
846.56	182
846.611	180
846.661	196
846.712	170
846.763	180
846.813	176
846.864	170
846.915	192
846.965	184
847.016	180
847.066	176
847.117	174
847.168	176
847.218	172
847.269	178
847.319	178
847.37	184
847.421	180
847.471	182
847.522	172
847.572	168
847.623	180
847.674	172
847.724	162
847.775	188
847.825	192
847.876	180
847.926	184
847.977	178
848.028	182
848.078	176
848.129	180
848.179	168
848.23	180
848.281	166
848.331	184
848.382	164
848.432	176
848.483	184
848.534	154
848.584	188
848.635	178
848.685	164
848.736	182
848.786	170
848.837	162
848.888	188
848.938	168
848.989	168
849.039	176
849.09	164
849.14	172
849.191	172
849.242	180
849.292	156
849.343	172
849.393	154
849.444	180
849.494	172
849.545	174
849.596	166
849.646	164
849.697	176
849.747	148
849.798	174
849.848	168
849.899	154
849.95	168
850	168
850.051	174
850.101	188
850.152	182
850.202	170
850.253	176
850.303	176
850.354	172
850.405	168
850.455	178
850.506	160
850.556	154
850.607	162
850.657	178
850.708	168
850.758	152
850.809	170
850.86	158
850.91	168
850.961	166
851.011	166
851.062	164
851.112	158
851.163	160
851.213	164
851.264	168
851.314	164
851.365	166
851.416	160
851.466	176
851.517	170
851.567	162
851.618	160
851.668	164
851.719	156
851.769	148
851.82	166
851.87	156
851.921	158
851.971	170
852.022	148
852.073	156
852.123	172
852.174	164
852.224	162
852.275	158
852.325	164.011
852.376	158.202
852.426	165.599
852.477	151.856
852.527	155.286
852.578	157.892
852.628	167.868
852.679	178.653
852.729	155.518
852.78	158.348
852.831	146.399
852.881	164.16
852.932	165.928
852.982	149.655
853.033	156.304
853.083	159.173
853.134	160.058
853.184	157.041
853.235	155.693
853.285	162.198
853.336	147.64
853.386	159.887
853.437	153.8
853.487	163.321
853.538	161.356
853.588	152.55
853.639	157.996
853.689	149.021
853.74	152.86
853.79	150.124
853.841	156.34
853.891	153.663
853.942	149.902
853.992	153.589
854.043	165.59
854.093	150.58
854.144	150.665
854.194	150.524
854.245	155.198
854.295	158.556
854.346	161.17
854.396	157.973
854.447	150.76
854.497	152.892
854.548	156.478
854.598	160.616
854.649	149.275
854.699	140.675
854.75	151.285
854.8	153.501
854.851	143.03
854.901	148.285
854.952	152.537
855.002	154.547
855.053	148.301
855.103	152.263
855.154	153.806
855.204	146.793
855.255	146.65
855.305	151.094
855.356	148.427
855.406	144.791
855.457	145.69
855.507	148.608
855.558	152.27
855.608	148.134
855.659	144.99
855.709	149.769
855.76	148.271
855.81	137.813
855.861	143.004
855.911	144.96
855.962	146.966
856.012	153.548
856.063	149.247
856.113	143.953
856.164	152.213
856.214	155.186
856.265	146.612
856.315	141.652
856.366	143.386
856.416	148
856.467	147.174
856.517	147.551
856.568	148.023
856.618	151.479
856.668	145.888
856.719	137.967
856.769	142.341
856.82	153.157
856.87	154.004
856.921	145.411
856.971	149.272
857.022	146.5
857.072	132.66
857.123	133.195
857.173	136.903
857.224	140.92
857.274	142.06
857.325	148.432
857.352	156
857.403	158
857.453	144
857.504	142
857.555	144
857.606	144
857.656	152
857.707	148
857.758	134
857.809	142
857.859	142
857.91	136
857.961	134
858.012	154
858.063	150
858.113	148
858.164	144
858.215	152
858.266	148
858.316	142
858.367	138
858.418	132
858.469	156
858.519	146
858.57	138
858.621	152
858.672	142
858.722	146
858.773	134
858.824	138
858.875	136
858.925	136
858.976	138
859.027	140
859.078	134
859.128	136
859.179	144
859.23	152
859.281	142
859.331	142
859.382	142
859.433	138
859.483	142
859.534	128
859.585	124
859.636	142
859.686	144
859.737	136
859.788	142
859.839	154
859.889	150
859.94	136
859.991	134
860.042	126
860.092	146
860.143	132
860.194	144
860.245	132
860.295	140
860.346	130
860.397	130
860.447	130
860.498	124
860.549	142
860.6	134
860.65	136
860.701	140
860.752	128
860.802	120
860.853	142
860.904	146
860.955	130
861.005	130
861.056	136
861.107	124
861.158	140
861.208	126
861.259	138
861.31	130
861.36	144
861.411	136
861.462	148
861.513	138
861.563	138
861.614	140
861.665	144
861.715	128
861.766	128
861.817	122
861.868	128
861.918	130
861.969	126
862.02	124
862.07	138
862.121	128
862.172	136
862.223	120
862.273	136
862.324	138
862.375	134
862.425	128
862.476	136
862.527	124
862.577	136
862.628	130
862.679	130
862.73	122
862.78	128
862.831	122
862.882	140
862.932	128
862.983	134
863.034	120
863.084	130
863.135	132
863.186	132
863.237	124
863.287	118
863.338	142
863.389	122
863.439	114
863.49	130
863.541	134
863.591	130
863.642	124
863.693	136
863.744	130
863.794	128
863.845	130
863.896	134
863.946	138
863.997	124
864.048	124
864.098	128
864.149	128
864.2	124
864.25	124
864.301	136
864.352	128
864.402	128
864.453	120
864.504	134
864.555	130
864.605	128
864.656	114
864.707	130
864.757	122
864.808	124
864.859	118
864.909	134
864.96	126
865.011	124
865.061	118
865.112	120
865.163	134
865.213	118
865.264	120
865.315	124
865.365	138
865.416	118
865.467	112
865.517	130
865.568	122
865.619	112
865.669	118
865.72	126
865.771	126
865.821	116
865.872	122
865.923	126
865.973	130
866.024	122
866.075	110
866.125	124
866.176	120
866.227	124
866.277	108
866.328	126
866.379	124
866.429	122
866.48	108
866.531	124
866.581	118
866.632	114
866.683	112
866.733	128
866.784	122
866.835	118
866.885	122
866.936	128
866.987	140
867.037	118
867.088	124
867.138	130
867.189	114
867.24	122
867.29	120
867.341	118
867.392	118
867.442	122
867.493	106
867.544	122
867.594	114
867.645	126
867.696	118
867.746	118
867.797	130
867.848	126
867.898	104
867.949	134
867.999	120
868.05	114
868.101	116
868.151	120
868.202	116
868.253	122
868.303	114
868.354	120
868.405	108
868.455	120
868.506	120
868.556	124
868.607	114
868.658	128
868.708	124
868.759	122
868.81	122
868.86	114
868.911	116
868.961	124
869.012	120
869.063	108
869.113	116
869.164	126
869.215	110
869.265	110
869.316	114
869.367	116
869.417	116
869.468	118
869.518	114
869.569	112
869.62	104
869.67	118
869.721	112
869.771	120
869.822	116
869.873	106
869.923	116
869.974	102
870.025	118
870.075	118
870.126	110
870.176	120
870.227	104
870.278	108
870.328	100
870.379	120
870.43	126
870.48	120
870.531	116
870.581	112
870.632	112
870.683	114
870.733	114
870.784	106
870.834	110
870.885	122
870.936	104
870.986	106
871.037	118
871.087	112
871.138	114
871.189	116
871.239	114
871.29	108
871.34	104
871.391	122
871.442	110
871.492	112
871.543	98
871.593	110
871.644	108
871.695	108
871.745	102
871.796	114
871.846	122
871.897	120
871.948	112
871.998	116
872.049	108
872.099	106
872.15	102
872.201	116
872.251	112
872.302	114
872.352	98
872.403	118
872.453	108
872.504	108
872.555	108
872.605	110
872.656	114
872.706	108
872.757	94
872.808	110
872.858	118
872.909	100
872.959	90
873.01	110
873.06	114
873.111	114
873.162	102
873.212	108
873.263	116
873.313	100
873.364	100
873.415	108
873.465	104
873.516	100
873.566	98
873.617	108
873.667	112
873.718	106
873.769	96
873.819	110
873.87	104
873.92	104
873.971	106
874.021	114
874.072	108
874.123	112
874.173	102
874.224	118
874.274	114
874.325	108
874.375	104
874.426	114
874.477	108
874.527	104
874.578	104
874.628	102
874.679	108
874.729	102
874.78	100
874.83	112
874.881	104
874.932	106
874.982	90
875.033	102
875.083	102
875.134	106
875.184	96
875.235	120
875.285	110
875.336	88
875.387	102
875.437	100
875.488	106
875.538	92
875.589	96
875.639	106
875.69	100
875.74	100
875.791	98
875.841	112
875.892	96
875.943	102
875.993	88
876.044	104
876.094	106
876.145	96
876.195	92
876.246	88
876.296	106
876.347	98
876.397	102
876.448	94
876.499	98
876.549	100
876.6	102
876.65	114
876.701	104
876.751	92
876.802	86
876.852	100
876.903	90
876.953	98
877.004	94
877.054	104
877.105	98
877.155	94
877.206	94
877.257	102
877.307	100
877.358	104
877.408	90
877.459	120
877.509	102
877.56	106
877.61	98
877.661	104
877.711	100
877.762	102
877.812	94
877.863	98
877.913	100
877.964	110
878.014	82
878.065	116
878.115	100
878.166	102
878.216	92
878.267	108
878.318	98
878.368	92
878.419	90
878.469	98
878.52	92
878.57	86
878.621	90
878.671	88
878.722	106
878.772	96
878.823	86
878.873	98
878.924	96
878.974	88
879.025	86
879.075	102
879.126	98
879.176	100
879.227	88
879.277	104
879.328	84
879.378	100
879.429	86
879.479	90
879.53	98
879.58	86
879.631	90
879.681	94
879.732	100
879.782	94
879.833	88
879.883	108
879.934	96
879.984	92
880.035	90
880.085	104
880.136	104
880.186	90
880.237	96
880.287	106
880.338	98
880.388	86
880.439	82
880.489	110
880.54	98
880.59	96
880.641	84
880.691	90
880.742	88
880.792	94
880.842	84
880.893	92
880.943	98
880.994	102
881.044	88
881.095	92
881.145	104
881.196	92
881.246	84
881.297	100
881.347	102
881.398	94
881.448	84
881.499	88
881.549	92
881.6	88
881.65	92
881.701	94
881.751	98
881.802	84
881.852	86
881.902	96
881.953	96
882.003	100
882.054	86
882.104	98
882.155	76
882.205	90
882.256	76
882.306	96
882.357	92
882.407	90
882.458	86
882.508	80
882.559	96
882.609	92
882.659	90
882.71	96
882.76	94
882.811	92
882.861	84
882.912	94
882.962	90
883.013	90
883.063	78
883.114	80
883.164	84
883.214	88
883.265	86
883.315	86
883.366	92
883.416	94
883.467	96
883.517	88
883.568	98
883.618	90
883.669	88
883.719	82
883.769	90
883.82	82
883.87	82
883.921	90
883.971	84
884.022	82
884.072	84
884.123	86
884.173	94
884.223	94
884.274	80
884.324	78
884.375	82
884.425	86
884.476	90
884.526	106
884.577	92
884.627	96
884.677	82
884.728	92
884.778	86
884.829	86
884.879	80
884.93	88
884.98	90
885.03	88
885.081	78
885.131	82
885.182	90
885.232	92
885.283	80
885.333	94
885.383	92
885.434	84
885.484	84
885.535	94
885.585	94
885.635	84
885.686	78
885.736	90
885.787	92
885.837	92
885.888	78
885.938	74
885.988	84
886.039	88
886.089	70
886.14	90
886.19	96
886.241	76
886.291	78
886.341	88
886.392	84
886.442	84
886.493	82
886.543	86
886.593	78
886.644	78
886.694	78
886.745	86
886.795	80
886.845	88
886.896	74
886.946	92
886.997	86
887.047	72
887.097	70
887.148	78
887.198	84
887.249	86
887.299	72
887.349	84
887.4	96
887.45	84
887.501	74
887.551	86
887.602	76
887.652	88
887.702	76
887.753	86
887.803	78
887.853	74
887.904	74
887.954	88
888.005	84
888.055	88
888.105	68
888.156	88
888.206	80
888.257	78
888.307	76
888.357	90
888.408	74
888.458	84
888.509	74
888.559	84
888.609	88
888.66	82
888.71	88
888.76	98
888.811	72
888.861	78
888.912	68
888.962	82
889.012	88
889.063	86
889.113	80
889.163	80
889.214	74
889.264	72
889.315	76
889.365	92
889.415	80
889.466	80
889.516	70
889.566	80
889.617	82
889.667	84
889.718	74
889.768	68
889.818	76
889.869	82
889.919	74
889.969	76
890.02	88
890.07	72
890.12	70
890.171	82
890.221	74
890.272	74
890.322	64
890.372	72
890.423	78
890.473	66
890.523	80
890.574	80
890.624	72
890.674	82
890.725	62
890.775	78
890.826	80
890.876	76
890.926	68
890.977	82
891.027	82
891.077	80
891.128	62
891.178	76
891.228	82
891.279	80
891.329	68
891.379	72
891.43	72
891.48	80
891.53	74
891.581	76
891.631	82
891.681	78
891.732	76
891.782	78
891.832	80
891.883	86
891.933	70
891.983	72
892.034	66
892.084	74
892.134	68
892.185	78
892.235	76
892.286	80
892.336	70
892.386	78
892.437	66
892.487	74
892.537	68
892.587	86
892.638	80
892.688	66
892.738	74
892.789	76
892.839	72
892.889	82
892.94	70
892.99	74
893.04	74
893.091	72
893.141	74
893.191	78
893.242	68
893.292	80
893.342	60
893.393	74
893.443	80
893.493	70
893.544	62
893.594	80
893.644	66
893.695	74
893.745	62
893.795	74
893.846	74
893.896	74
893.946	70
893.996	80
894.047	68
894.097	70
894.147	60
894.198	74
894.248	82
894.298	78
894.349	62
894.399	78
894.449	80
894.5	72
894.55	66
894.6	66
894.65	72
894.701	86
894.751	72
894.801	74
894.852	70
894.902	74
894.952	68
895.003	76
895.053	74
895.103	74
895.153	60
895.204	74
895.254	68
895.304	66
895.355	64
895.405	60
895.455	76
895.505	70
895.556	58
895.606	72
895.656	62
895.707	80
895.757	54
895.807	72
895.858	66
895.908	66
895.958	64
896.008	74
896.059	72
896.109	72
896.159	72
896.21	72
896.26	68
896.31	70
896.36	66
896.411	84
896.461	72
896.511	74
896.561	68
896.612	70
896.662	64
896.712	66
896.763	58
896.813	70
896.863	58
896.913	72
896.964	62
897.014	74
897.064	66
897.115	72
897.165	52
897.215	62
897.265	70
897.316	68
897.366	62
897.416	74
897.466	68
897.517	68
897.567	56
897.617	64
897.667	60
897.718	70
897.768	62
897.818	72
897.868	70
897.919	68
897.969	72
898.019	64
898.069	60
898.12	70
898.17	58
898.22	76
898.27	66
898.321	62
898.371	66
898.421	62
898.471	68
898.522	74
898.572	54
898.622	64
898.672	64
898.723	66
898.773	58
898.823	68
898.873	70
898.924	72
898.974	60
899.024	70
899.074	68
899.125	59
899.175	50
899.225	66
899.275	68
899.326	68
899.376	56
899.426	76
899.476	72
899.527	70
899.577	54
899.627	70
899.677	68
899.728	68
899.778	60
899.828	68
899.878	60
899.928	64
899.979	56
