#Acq. time (s)=	3
#Accumulations=	2
#Range (nm)=	520...900
#Windows=	8
#Auto scanning=	Off
#Autofocus=	Off
#AutoExposure=	Off
#Spike filter=	Multiple accum.
#Delay time (s)=	0
#Binning=	1
#Readout mode=	Signal
#DeNoise=	Off
#ICS correction=	Off
#Dark correction=	Off
#Inst. Process=	Off
#Detector temperature (°C)=	-59.98
#Instrument=	LabRAM HR Evol
#Detector=	Syncerity OE
#Objective=	x50_VIS
#Grating=	600 (500nm)
#ND Filter=	25%
#Laser=	514nm_Edge
#Hole=	199.981
#Range=	Auto
#StageXY=	Marzhauser
#StageZ=	Marzhauser
#X (µm)=	-454.1
#Y (µm)=	5366.7
#Z (µm)=	-6.6
#Full time(mm:ss)=	1:32
#Project=	
#Sample=	
#Site=	
#Title=	PL_M2_180324
#Remark=	
#Date=	28.03.2024 09:12
#Acquired=	28.03.2024 09:12:31
520.044	48
520.097	54
520.149	46
520.201	44
520.254	44
520.306	44
520.359	46
520.411	46
520.464	46
520.516	36
520.569	50
520.621	40
520.674	34
520.726	30
520.778	52
520.831	46
520.883	38
520.936	42
520.988	44
521.041	38
521.093	38
521.146	38
521.198	52
521.25	48
521.303	54
521.355	40
521.408	46
521.46	42
521.513	46
521.565	40
521.617	48
521.67	52
521.722	42
521.775	44
521.827	50
521.88	48
521.932	46
521.984	46
522.037	40
522.089	56
522.142	38
522.194	42
522.247	54
522.299	44
522.352	40
522.404	44
522.456	50
522.509	52
522.561	40
522.614	50
522.666	36
522.719	48
522.771	42
522.823	46
522.876	46
522.928	50
522.981	46
523.033	44
523.086	48
523.138	44
523.19	36
523.243	38
523.295	48
523.348	48
523.4	46
523.453	44
523.505	42
523.557	38
523.61	42
523.662	42
523.715	56
523.767	44
523.82	42
523.872	44
523.924	52
523.977	42
524.029	44
524.082	36
524.134	44
524.186	54
524.239	42
524.291	38
524.344	46
524.396	50
524.449	42
524.501	36
524.553	52
524.606	48
524.658	44
524.711	38
524.763	52
524.815	40
524.868	48
524.92	50
524.973	48
525.025	44
525.078	48
525.13	32
525.182	50
525.235	44
525.287	46
525.34	46
525.392	46
525.444	56
525.497	42
525.549	36
525.602	46
525.654	46
525.706	40
525.759	42
525.811	52
525.864	42
525.916	40
525.969	38
526.021	46
526.073	52
526.126	44
526.178	38
526.231	50
526.283	56
526.335	46
526.388	40
526.44	42
526.493	44
526.545	36
526.597	36
526.65	46
526.702	48
526.755	38
526.807	42
526.859	48
526.912	50
526.964	38
527.017	52
527.069	52
527.121	38
527.174	54
527.226	42
527.279	40
527.331	48
527.383	50
527.436	38
527.488	50
527.54	46
527.593	48
527.645	36
527.698	46
527.75	42
527.802	44
527.855	36
527.907	48
527.96	48
528.012	42
528.064	46
528.117	50
528.169	42
528.222	44
528.274	36
528.326	46
528.379	56
528.431	40
528.484	38
528.536	50
528.588	44
528.641	42
528.693	44
528.745	44
528.798	44
528.85	56
528.903	46
528.955	44
529.007	46
529.06	38
529.112	40
529.164	44
529.217	50
529.269	38
529.322	36
529.374	36
529.426	40
529.479	42
529.531	40
529.584	44
529.636	44
529.688	44
529.741	42
529.793	48
529.845	54
529.898	44
529.95	40
530.003	50
530.055	42
530.107	44
530.16	42
530.212	44
530.264	44
530.317	50
530.369	34
530.422	50
530.474	46
530.526	50
530.579	38
530.631	46
530.683	46
530.736	40
530.788	36
530.841	52
530.893	56
530.945	50
530.998	48
531.05	56
531.102	50
531.155	40
531.207	42
531.259	46
531.312	56
531.364	50
531.417	48
531.469	44
531.521	46
531.574	40
531.626	42
531.678	52
531.731	52
531.783	48
531.835	42
531.888	48
531.94	54
531.992	34
532.045	44
532.097	54
532.15	48
532.202	54
532.254	48
532.307	60
532.359	50
532.411	54
532.464	46
532.516	50
532.568	48
532.621	48
532.673	46
532.726	52
532.778	54
532.83	50
532.883	44
532.935	60
532.987	44
533.04	58
533.092	46
533.144	52
533.197	54
533.249	46
533.301	42
533.354	56
533.406	54
533.458	46
533.511	56
533.563	62
533.615	56
533.668	56
533.72	54
533.773	46
533.825	56
533.877	54
533.93	58
533.982	62
534.034	70
534.087	58
534.139	50
534.191	56
534.244	52
534.296	58
534.348	54
534.401	56
534.453	74
534.505	66
534.558	62
534.61	64
534.662	72
534.715	68
534.767	64
534.819	70
534.872	64
534.924	72
534.976	64
535.029	68
535.081	78
535.133	64
535.186	70
535.238	64
535.29	74
535.343	68
535.395	66
535.447	70
535.5	76
535.552	68
535.604	62
535.657	70
535.709	64
535.761	64
535.814	48
535.866	72
535.918	68
535.971	60
536.023	60
536.075	74
536.128	68
536.18	58
536.232	60
536.285	62
536.337	64
536.389	60
536.442	52
536.494	70
536.546	60
536.599	62
536.651	58
536.703	62
536.755	64
536.808	54
536.86	54
536.912	56
536.965	74
537.017	62
537.069	66
537.122	56
537.174	66
537.226	64
537.279	56
537.331	60
537.383	54
537.436	58
537.488	62
537.54	68
537.593	64
537.645	64
537.697	60
537.75	66
537.802	58
537.854	58
537.906	62
537.959	60
538.011	56
538.063	58
538.116	68
538.168	64
538.22	60
538.273	54
538.325	64
538.377	66
538.43	64
538.482	62
538.534	56
538.586	58
538.639	58
538.691	62
538.743	56
538.796	64
538.848	66
538.9	62
538.953	58
539.005	68
539.057	66
539.109	74
539.162	60
539.214	60
539.266	76
539.319	72
539.371	64
539.423	70
539.476	66
539.528	74
539.58	64
539.633	70
539.685	70
539.737	68
539.789	62
539.842	68
539.894	68
539.946	66
539.999	66
540.051	66
540.103	70
540.155	74
540.208	66
540.26	74
540.312	68
540.365	70
540.417	58
540.469	68
540.521	74
540.574	70
540.626	78
540.678	72
540.731	70
540.783	68
540.835	64
540.888	64
540.94	76
540.992	66
541.044	70
541.097	66
541.149	74
541.201	72
541.254	64
541.306	68
541.358	76
541.41	76
541.463	70
541.515	76
541.567	70
541.62	74
541.672	64
541.724	76
541.776	70
541.829	72
541.881	64
541.933	72
541.985	78
542.038	78
542.09	66
542.142	74
542.195	78
542.247	74
542.299	78
542.351	70
542.404	80
542.456	70
542.508	62
542.56	74
542.613	76
542.665	74
542.717	68
542.77	78
542.822	86
542.874	78
542.926	72
542.979	82
543.031	76
543.083	74
543.135	74
543.188	80
543.24	76
543.292	74
543.344	70
543.397	78
543.449	84
543.501	98
543.554	86
543.606	82
543.658	90
543.71	74
543.763	80
543.815	80
543.867	76
543.919	90
543.972	82
544.024	74
544.076	90
544.128	86
544.181	78
544.233	98
544.285	88
544.337	88
544.39	94
544.442	90
544.494	98
544.547	84
544.599	84
544.651	90
544.703	94
544.755	98
544.808	82
544.86	94
544.912	90
544.965	92
545.017	90
545.069	86
545.121	90
545.174	92
545.226	102
545.278	82
545.33	96
545.383	92
545.435	90
545.487	92
545.539	96
545.591	94
545.644	82
545.696	92
545.748	98
545.8	96
545.853	90
545.905	90
545.957	92
546.009	100
546.062	102
546.114	88
546.166	106
546.218	96
546.271	92
546.323	86
546.375	102
546.427	98
546.48	100
546.532	106
546.584	112
546.636	102
546.689	82
546.741	100
546.793	108
546.845	104
546.898	106
546.95	112
547.002	116
547.054	100
547.106	98
547.159	92
547.211	100
547.263	108
547.315	112
547.368	112
547.42	120
547.472	112
547.524	100
547.577	116
547.629	126
547.681	108
547.733	114
547.785	124
547.838	122
547.89	122
547.942	106
547.994	118
548.047	122
548.099	116
548.151	122
548.203	126
548.255	124
548.308	120
548.36	130
548.412	110
548.464	122
548.517	136
548.569	124
548.621	122
548.673	136
548.725	136
548.778	132
548.83	134
548.882	132
548.934	150
548.987	132
549.039	148
549.091	152
549.143	170
549.195	160
549.248	188
549.3	198
549.352	194
549.404	206
549.456	212
549.509	230
549.561	252
549.613	258
549.665	268
549.718	256
549.77	280
549.822	264
549.874	282
549.926	252
549.979	236
550.031	248
550.083	244
550.135	230
550.187	194
550.24	210
550.292	208
550.344	200
550.396	198
550.448	174
550.501	170
550.553	196
550.605	186
550.657	184
550.709	178
550.762	172
550.814	190
550.866	184
550.918	184
550.97	174
551.023	168
551.075	176
551.127	194
551.179	190
551.231	186
551.284	190
551.336	198
551.388	188
551.44	188
551.492	192
551.545	220
551.597	208
551.649	218
551.701	218
551.753	214
551.806	236
551.858	250
551.91	250
551.962	270
552.014	298
552.067	302
552.119	318
552.171	352
552.223	388
552.275	476
552.327	546
552.38	746
552.432	1312
552.484	2726
552.536	5366
552.588	9918
552.641	20728
552.693	31624
552.745	22292
552.797	10586
552.849	3820
552.901	1524
552.954	898
553.006	638
553.058	500
553.11	430
553.162	364
553.215	340
553.267	296
553.319	300
553.371	234
553.423	250
553.475	246
553.528	234
553.58	240
553.632	230
553.684	234
553.736	208
553.788	200
553.841	208
553.893	210
553.945	200
553.997	214
554.049	202
554.102	216
554.154	194
554.206	204
554.258	202
554.31	190
554.362	192
554.414	196
554.467	184
554.519	206
554.571	208
554.623	198
554.675	192
554.727	188
554.78	182
554.832	196
554.884	188
554.936	200
554.988	200
555.04	194
555.093	190
555.145	196
555.197	182
555.249	182
555.301	190
555.353	186
555.406	196
555.458	198
555.51	188
555.562	196
555.614	190
555.666	204
555.719	188
555.771	196
555.823	200
555.875	194
555.927	202
555.979	212
556.031	210
556.084	208
556.136	206
556.188	210
556.24	210
556.292	216
556.344	210
556.396	216
556.449	218
556.501	208
556.553	202
556.605	208
556.657	202
556.709	212
556.762	206
556.814	226
556.866	212
556.918	204
556.97	222
557.022	230
557.074	240
557.127	212
557.179	226
557.231	224
557.283	230
557.335	216
557.387	216
557.439	234
557.492	230
557.544	218
557.596	226
557.648	236
557.7	222
557.752	228
557.804	226
557.856	246
557.909	228
557.961	232
558.013	234
558.065	252
558.117	258
558.169	228
558.221	240
558.273	256
558.326	256
558.378	232
558.43	230
558.482	220
558.534	238
558.586	236
558.638	242
558.691	270
558.743	242
558.795	238
558.847	248
558.899	236
558.951	230
559.003	240
559.055	222
559.108	254
559.16	264
559.212	238
559.264	256
559.316	250
559.368	234
559.42	246
559.472	256
559.525	262
559.577	252
559.629	252
559.681	262
559.733	256
559.785	264
559.837	252
559.889	254
559.941	274
559.994	262
560.046	266
560.098	262
560.15	272
560.202	262
560.254	280
560.306	262
560.358	250
560.41	282
560.463	258
560.515	272
560.567	278
560.619	292
560.671	264
560.723	268
560.775	286
560.827	266
560.879	284
560.932	300
560.984	268
561.036	282
561.088	280
561.14	310
561.192	274
561.244	288
561.296	298
561.348	292
561.4	304
561.453	304
561.505	288
561.557	298
561.609	308
561.661	302
561.713	294
561.765	312
561.817	312
561.869	308
561.921	318
561.974	320
562.026	316
562.078	312
562.13	298
562.182	314
562.234	332
562.286	298
562.338	322
562.39	336
562.442	350
562.494	318
562.547	316
562.599	330
562.651	314
562.703	332
562.755	322
562.807	336
562.859	340
562.911	346
562.963	330
563.015	348
563.067	346
563.12	356
563.172	338
563.224	346
563.276	360
563.328	332
563.38	364
563.432	364
563.484	374
563.536	376
563.588	370
563.64	390
563.692	384
563.744	396
563.797	390
563.849	390
563.901	398
563.953	420
564.005	414
564.057	416
564.109	408
564.161	394
564.213	408
564.265	408
564.317	420
564.369	404
564.421	400
564.474	432
564.526	394
564.578	410
564.63	398
564.682	390
564.734	422
564.786	384
564.838	388
564.89	404
564.942	400
564.994	398
565.046	434
565.098	392
565.15	408
565.202	388
565.255	390
565.307	400
565.359	422
565.411	394
565.463	416
565.515	426
565.567	396
565.619	408
565.671	392
565.723	414
565.775	410
565.827	426
565.879	426
565.931	390
565.983	424
566.035	424
566.087	418
566.139	410
566.192	418
566.244	432
566.296	416
566.348	438
566.4	404
566.452	440
566.504	422
566.556	434
566.608	416
566.66	446
566.712	448
566.764	454
566.816	446
566.868	454
566.92	442
566.972	422
567.024	444
567.076	484
567.128	472
567.18	442
567.232	476
567.285	448
567.337	446
567.389	442
567.441	472
567.493	478
567.545	456
567.597	462
567.649	476
567.701	482
567.753	492
567.805	470
567.857	486
567.909	494
567.961	490
568.013	464
568.065	488
568.117	481.99
568.169	462.27
568.221	487.88
568.273	509.123
568.325	499.751
568.377	490.371
568.429	467.894
568.481	508.331
568.533	499.594
568.585	505.898
568.637	505.585
568.69	517.736
568.742	521.26
568.794	503.793
568.846	501.655
568.898	517.639
568.95	516.259
569.002	515.291
569.054	500.89
569.106	519.258
569.158	525.043
569.21	527.881
569.262	518.589
569.314	535.42
569.366	542.691
569.418	520.106
569.47	538.928
569.522	552.335
569.574	533.046
569.626	535.368
569.678	529.698
569.73	518.969
569.782	544.15
569.834	549.339
569.886	571.11
569.938	565.563
569.99	568.101
570.042	574.485
570.094	580.817
570.146	589.779
570.198	572.576
570.25	570.924
570.302	572.258
570.354	596.642
570.406	594.304
570.458	582.77
570.51	604.681
570.562	605.099
570.614	608.082
570.666	612.117
570.718	622.66
570.77	630.349
570.822	637.986
570.874	628.74
570.926	632.464
570.978	630.481
571.03	644.091
571.082	656.226
571.134	646.32
571.186	673.387
571.238	678.924
571.29	660.635
571.342	673.557
571.394	672.572
571.446	674.739
571.498	703.715
571.55	709.162
571.602	715.401
571.654	716.883
571.706	723.07
571.758	723.758
571.81	726.361
571.862	718.351
571.914	733.481
571.966	763.387
572.018	769.835
572.07	770.141
572.122	788.018
572.174	769.539
572.226	775.159
572.278	794.996
572.33	810.995
572.382	838.726
572.434	834.296
572.486	846.441
572.538	872.03
572.59	864.637
572.642	843.346
572.694	838.597
572.746	881.573
572.798	891.332
572.85	924.361
572.902	921.231
572.954	923.435
573.006	925.476
573.058	964.619
573.11	942.903
573.162	966.475
573.214	995.722
573.266	991.232
573.312	984
573.364	992
573.416	1028
573.469	1048
573.521	1056
573.573	1080
573.625	1098
573.677	1136
573.73	1090
573.782	1174
573.834	1160
573.886	1178
573.938	1182
573.991	1200
574.043	1280
574.095	1284
574.147	1288
574.199	1318
574.252	1318
574.304	1354
574.356	1360
574.408	1434
574.46	1432
574.513	1408
574.565	1458
574.617	1480
574.669	1500
574.721	1518
574.774	1520
574.826	1600
574.878	1596
574.93	1604
574.982	1690
575.035	1650
575.087	1676
575.139	1718
575.191	1682
575.243	1738
575.296	1766
575.348	1810
575.4	1820
575.452	1798
575.504	1862
575.556	1816
575.609	1836
575.661	1804
575.713	1862
575.765	1848
575.817	1850
575.87	1832
575.922	1856
575.974	1848
576.026	1860
576.078	1860
576.131	1816
576.183	1840
576.235	1796
576.287	1802
576.339	1802
576.391	1794
576.444	1774
576.496	1778
576.548	1748
576.6	1762
576.652	1730
576.705	1726
576.757	1676
576.809	1668
576.861	1644
576.913	1642
576.965	1622
577.018	1630
577.07	1576
577.122	1570
577.174	1590
577.226	1534
577.279	1520
577.331	1460
577.383	1506
577.435	1478
577.487	1476
577.539	1422
577.592	1424
577.644	1430
577.696	1390
577.748	1402
577.8	1418
577.852	1400
577.905	1366
577.957	1334
578.009	1318
578.061	1308
578.113	1310
578.165	1294
578.218	1280
578.27	1280
578.322	1274
578.374	1274
578.426	1248
578.478	1248
578.531	1246
578.583	1242
578.635	1234
578.687	1232
578.739	1220
578.791	1200
578.844	1202
578.896	1198
578.948	1220
579	1198
579.052	1186
579.104	1190
579.157	1172
579.209	1154
579.261	1224
579.313	1198
579.365	1170
579.417	1180
579.47	1158
579.522	1210
579.574	1164
579.626	1172
579.678	1210
579.73	1186
579.782	1200
579.835	1148
579.887	1178
579.939	1186
579.991	1184
580.043	1166
580.095	1208
580.148	1168
580.2	1218
580.252	1178
580.304	1176
580.356	1172
580.408	1186
580.46	1160
580.513	1162
580.565	1190
580.617	1184
580.669	1170
580.721	1178
580.773	1166
580.826	1188
580.878	1150
580.93	1174
580.982	1218
581.034	1222
581.086	1186
581.138	1204
581.191	1210
581.243	1210
581.295	1210
581.347	1186
581.399	1188
581.451	1216
581.503	1226
581.556	1206
581.608	1208
581.66	1186
581.712	1170
581.764	1230
581.816	1212
581.868	1220
581.92	1204
581.973	1222
582.025	1240
582.077	1210
582.129	1222
582.181	1212
582.233	1264
582.285	1244
582.338	1266
582.39	1238
582.442	1234
582.494	1292
582.546	1242
582.598	1254
582.65	1282
582.703	1248
582.755	1264
582.807	1232
582.859	1278
582.911	1242
582.963	1312
583.015	1290
583.067	1280
583.12	1296
583.172	1306
583.224	1320
583.276	1292
583.328	1288
583.38	1298
583.432	1298
583.484	1312
583.537	1336
583.589	1350
583.641	1306
583.693	1288
583.745	1302
583.797	1390
583.849	1316
583.901	1368
583.953	1376
584.006	1394
584.058	1370
584.11	1378
584.162	1374
584.214	1360
584.266	1402
584.318	1404
584.37	1364
584.423	1396
584.475	1408
584.527	1388
584.579	1430
584.631	1410
584.683	1430
584.735	1406
584.787	1438
584.839	1424
584.892	1458
584.944	1460
584.996	1474
585.048	1448
585.1	1476
585.152	1462
585.204	1496
585.256	1454
585.308	1498
585.361	1498
585.413	1506
585.465	1508
585.517	1496
585.569	1480
585.621	1498
585.673	1504
585.725	1492
585.777	1560
585.83	1514
585.882	1514
585.934	1498
585.986	1566
586.038	1524
586.09	1564
586.142	1554
586.194	1560
586.246	1568
586.298	1598
586.351	1614
586.403	1626
586.455	1560
586.507	1556
586.559	1572
586.611	1596
586.663	1608
586.715	1610
586.767	1560
586.819	1584
586.872	1598
586.924	1630
586.976	1644
587.028	1630
587.08	1626
587.132	1614
587.184	1612
587.236	1628
587.288	1636
587.34	1656
587.392	1612
587.445	1646
587.497	1638
587.549	1626
587.601	1632
587.653	1640
587.705	1664
587.757	1596
587.809	1704
587.861	1630
587.913	1678
587.965	1648
588.018	1640
588.07	1670
588.122	1632
588.174	1658
588.226	1678
588.278	1652
588.33	1664
588.382	1666
588.434	1700
588.486	1716
588.538	1698
588.59	1678
588.642	1636
588.695	1678
588.747	1680
588.799	1694
588.851	1708
588.903	1682
588.955	1696
589.007	1686
589.059	1702
589.111	1712
589.163	1724
589.215	1702
589.267	1690
589.319	1712
589.372	1720
589.424	1722
589.476	1690
589.528	1712
589.58	1738
589.632	1716
589.684	1660
589.736	1724
589.788	1726
589.84	1748
589.892	1698
589.944	1686
589.996	1706
590.048	1730
590.101	1636
590.153	1714
590.205	1714
590.257	1654
590.309	1674
590.361	1724
590.413	1698
590.465	1722
590.517	1734
590.569	1720
590.621	1716
590.673	1694
590.725	1700
590.777	1700
590.829	1720
590.881	1702
590.933	1742
590.986	1726
591.038	1708
591.09	1696
591.142	1692
591.194	1706
591.246	1678
591.298	1704
591.35	1678
591.402	1674
591.454	1680
591.506	1682
591.558	1678
591.61	1672
591.662	1662
591.714	1678
591.766	1672
591.818	1658
591.87	1620
591.923	1666
591.975	1694
592.027	1670
592.079	1642
592.131	1664
592.183	1648
592.235	1664
592.287	1662
592.339	1672
592.391	1644
592.443	1636
592.495	1672
592.547	1702
592.599	1648
592.651	1622
592.703	1644
592.755	1694
592.807	1644
592.859	1650
592.911	1654
592.963	1686
593.015	1662
593.068	1672
593.12	1602
593.172	1620
593.224	1630
593.276	1626
593.328	1660
593.38	1614
593.432	1644
593.484	1646
593.536	1650
593.588	1656
593.64	1708
593.692	1640
593.744	1648
593.796	1666
593.848	1700
593.9	1628
593.952	1656
594.004	1686
594.056	1712
594.108	1628
594.16	1644
594.212	1690
594.264	1686
594.316	1648
594.368	1694
594.42	1680
594.472	1676
594.524	1688
594.576	1696
594.628	1680
594.68	1698
594.732	1678
594.784	1722
594.837	1694
594.889	1714
594.941	1664
594.993	1692
595.045	1706
595.097	1696
595.149	1738
595.201	1690
595.253	1736
595.305	1752
595.357	1740
595.409	1740
595.461	1760
595.513	1728
595.565	1748
595.617	1720
595.669	1730
595.721	1774
595.773	1782
595.825	1782
595.877	1782
595.929	1838
595.981	1800
596.033	1792
596.085	1796
596.137	1844
596.189	1768
596.241	1808
596.293	1778
596.345	1804
596.397	1810
596.449	1784
596.501	1852
596.553	1836
596.605	1886
596.657	1866
596.709	1866
596.761	1852
596.813	1852
596.865	1878
596.917	1804
596.969	1846
597.021	1858
597.073	1838
597.125	1840
597.177	1836
597.229	1866
597.281	1850
597.333	1794
597.385	1886
597.437	1834
597.489	1864
597.541	1898
597.593	1858
597.645	1898
597.697	1802
597.749	1894
597.801	1844
597.853	1866
597.905	1778
597.957	1872
598.009	1856
598.061	1854
598.113	1858
598.165	1898
598.217	1894
598.269	1892
598.321	1884
598.373	1828
598.425	1896
598.477	1898
598.529	1852
598.581	1890
598.633	1918
598.685	1910
598.737	1854
598.789	1874
598.841	1904
598.893	1890
598.945	1868
598.997	1930
599.049	1880
599.101	1864
599.153	1834
599.205	1880
599.257	1894
599.309	1920
599.361	1884
599.413	1898
599.465	1888
599.517	1910
599.569	1904
599.62	1866
599.672	1924
599.724	1906
599.776	1906
599.828	1938
599.88	1924
599.932	1922
599.984	1892
600.036	1910
600.088	1952
600.14	1908
600.192	1916
600.244	1936
600.296	1938
600.348	1890
600.4	1950
600.452	1894
600.504	1980
600.556	1928
600.608	1936
600.66	1916
600.712	1906
600.764	1928
600.816	1880
600.868	1926
600.92	1902
600.972	1908
601.024	1966
601.076	1902
601.128	1970
601.18	1910
601.232	1948
601.284	1922
601.335	1938
601.387	1944
601.439	1888
601.491	1900
601.543	1962
601.595	1930
601.647	1884
601.699	1916
601.751	1932
601.803	1922
601.855	1926
601.907	1960
601.959	1926
602.011	1932
602.063	1962
602.115	1886
602.167	1968
602.219	1934
602.271	1918
602.323	1948
602.375	1954
602.427	1948
602.478	1968
602.53	1956
602.582	1958
602.634	1952
602.686	1942
602.738	1946
602.79	1980
602.842	1972
602.894	1970
602.946	1936
602.998	1932
603.05	1998
603.102	1980
603.154	1994
603.206	1922
603.258	1992
603.31	1934
603.362	1996
603.413	1988
603.465	1956
603.517	1954
603.569	1946
603.621	2012
603.673	1996
603.725	2018
603.777	1998
603.829	1962
603.881	1966
603.933	1936
603.985	1988
604.037	1992
604.089	2002
604.141	1988
604.193	2038
604.244	2016
604.296	1988
604.348	2002
604.4	1980
604.452	1986
604.504	2026
604.556	1990
604.608	2010
604.66	2024
604.712	2038
604.764	2012
604.816	2014
604.868	2030
604.92	1998
604.971	2026
605.023	2028
605.075	2030
605.127	2024
605.179	2014
605.231	2046
605.283	2088
605.335	2034
605.387	2000
605.439	2006
605.491	2030
605.543	2024
605.594	1998
605.646	1992
605.698	2040
605.75	2014
605.802	1974
605.854	2016
605.906	2038
605.958	2024
606.01	1992
606.062	1978
606.114	2024
606.166	1976
606.217	2002
606.269	2028
606.321	1986
606.373	1988
606.425	2026
606.477	2034
606.529	2038
606.581	1998
606.633	2008
606.685	1988
606.737	2062
606.789	2014
606.84	1964
606.892	2024
606.944	2020
606.996	2016
607.048	2002
607.1	2016
607.152	2052
607.204	2032
607.256	2060
607.308	2002
607.359	2062
607.411	1998
607.463	2014
607.515	1984
607.567	2014
607.619	2054
607.671	2044
607.723	2052
607.775	2046
607.827	2052
607.878	2044
607.93	2046
607.982	2074
608.034	2076
608.086	2050
608.138	2002
608.19	2056
608.242	2066
608.294	2020
608.345	2060
608.397	2064
608.449	2082
608.501	2058
608.553	2062
608.605	2082
608.657	2092
608.709	2116
608.761	2110
608.812	2088
608.864	2112
608.916	2078
608.968	2100
609.02	2114
609.072	2118
609.124	2100
609.176	2128
609.228	2108
609.279	2054
609.331	2064
609.383	2088
609.435	2132
609.487	2140
609.539	2142
609.591	2146
609.643	2126
609.694	2162
609.746	2188
609.798	2100
609.85	2158
609.902	2170
609.954	2188
610.006	2124
610.058	2178
610.109	2084
610.161	2162
610.213	2128
610.265	2196
610.317	2172
610.369	2150
610.421	2168
610.473	2128
610.524	2188
610.576	2166
610.628	2190
610.68	2108
610.732	2136
610.784	2204
610.836	2196
610.887	2166
610.939	2200
610.991	2186
611.043	2178
611.095	2178
611.147	2152
611.199	2174
611.25	2154
611.302	2188
611.354	2220
611.406	2182
611.458	2252
611.51	2174
611.562	2192
611.614	2168
611.665	2240
611.717	2218
611.769	2224
611.821	2242
611.873	2194
611.925	2228
611.977	2258
612.028	2214
612.08	2196
612.132	2278
612.184	2240
612.236	2236
612.288	2254
612.339	2258
612.391	2286
612.443	2270
612.495	2174
612.547	2322
612.599	2264
612.651	2242
612.702	2286
612.754	2278
612.806	2264
612.858	2288
612.91	2272
612.962	2310
613.013	2300
613.065	2288
613.117	2296
613.169	2302
613.221	2314
613.273	2270
613.325	2294
613.376	2296
613.428	2328
613.48	2342
613.532	2320
613.584	2322
613.635	2336
613.687	2320
613.739	2370
613.791	2328
613.843	2336
613.895	2322
613.947	2378
613.998	2398
614.05	2388
614.102	2346
614.154	2368
614.206	2358
614.258	2374
614.309	2328
614.361	2456
614.413	2410
614.465	2400
614.517	2394
614.568	2420
614.62	2416
614.672	2418
614.724	2426
614.776	2464
614.828	2440
614.879	2426
614.931	2464
614.983	2468
615.035	2436
615.087	2398
615.139	2468
615.19	2460
615.242	2504
615.294	2484
615.346	2454
615.398	2490
615.449	2500
615.501	2464
615.553	2514
615.605	2482
615.657	2534
615.709	2482
615.76	2522
615.812	2486
615.864	2510
615.916	2428
615.968	2580
616.019	2533.48
616.071	2532.24
616.123	2511.8
616.175	2511.92
616.227	2531.82
616.278	2553.47
616.33	2511.2
616.382	2468.96
616.434	2536.52
616.486	2537.65
616.537	2545.97
616.589	2507.53
616.641	2525.37
616.693	2567.1
616.745	2587.41
616.797	2530.18
616.848	2575.2
616.9	2589.51
616.952	2599.54
617.004	2581.79
617.056	2571.89
617.107	2586.09
617.159	2548.16
617.211	2548.35
617.263	2573.14
617.315	2594.85
617.366	2609.48
617.418	2591.92
617.47	2592.38
617.522	2589.57
617.573	2596.81
617.625	2612.27
617.677	2612.22
617.729	2619.33
617.781	2630.29
617.832	2624.9
617.884	2636.02
617.936	2638.06
617.988	2630.53
618.04	2640.84
618.091	2606.31
618.143	2605.5
618.195	2685.4
618.247	2637.53
618.299	2627.4
618.35	2650
618.402	2643.53
618.454	2641.8
618.506	2665.57
618.557	2634.95
618.609	2653.24
618.661	2697.26
618.713	2689.17
618.765	2657.62
618.816	2691.57
618.868	2688.52
618.92	2708.32
618.972	2720.47
619.023	2664.59
619.075	2685.62
619.127	2667.31
619.179	2703.75
619.231	2748.45
619.282	2720.57
619.334	2681.4
619.386	2703.31
619.438	2711.69
619.49	2703.19
619.541	2724.96
619.593	2712.68
619.645	2700.16
619.697	2747.63
619.748	2745.46
619.8	2746.17
619.852	2724.96
619.904	2747.84
619.955	2718.52
620.007	2742.11
620.059	2715.87
620.111	2729.74
620.162	2723.5
620.214	2730.49
620.266	2744.47
620.318	2740.42
620.37	2753.14
620.421	2744.14
620.473	2738.55
620.525	2727.49
620.577	2748.15
620.628	2728.25
620.68	2762.22
620.732	2765.02
620.784	2755.18
620.835	2743.06
620.887	2762.65
620.939	2748.01
620.991	2756.92
621.042	2765.54
621.094	2795.94
621.146	2793.01
621.198	2788.99
621.249	2754.52
621.269	2730
621.321	2810
621.373	2792
621.425	2754
621.477	2766
621.529	2784
621.581	2714
621.633	2774
621.685	2746
621.737	2816
621.789	2796
621.841	2816
621.893	2810
621.945	2800
621.997	2788
622.049	2776
622.101	2814
622.153	2830
622.205	2826
622.257	2798
622.309	2756
622.361	2802
622.413	2784
622.465	2790
622.517	2806
622.569	2778
622.621	2796
622.673	2812
622.725	2806
622.776	2864
622.828	2744
622.88	2850
622.932	2810
622.984	2752
623.036	2820
623.088	2792
623.14	2812
623.192	2830
623.244	2884
623.296	2842
623.348	2848
623.4	2806
623.452	2862
623.504	2854
623.556	2856
623.608	2866
623.66	2858
623.712	2882
623.764	2846
623.816	2932
623.868	2886
623.92	2900
623.972	2878
624.024	2850
624.076	2846
624.128	2874
624.18	2800
624.232	2822
624.284	2886
624.336	2900
624.388	2912
624.44	2890
624.492	2862
624.544	2888
624.596	2870
624.648	2886
624.699	2864
624.751	2880
624.803	2934
624.855	2944
624.907	2870
624.959	2894
625.011	2940
625.063	2890
625.115	2872
625.167	2946
625.219	2966
625.271	2976
625.323	2962
625.375	3010
625.427	2916
625.479	2928
625.531	2924
625.583	2934
625.635	2898
625.687	2952
625.739	2952
625.791	2988
625.843	2992
625.895	3016
625.946	2958
625.998	2970
626.05	2940
626.102	2972
626.154	3030
626.206	2930
626.258	2918
626.31	2984
626.362	3022
626.414	3018
626.466	3018
626.518	3034
626.57	2982
626.622	3042
626.674	3012
626.726	2996
626.778	3032
626.83	3000
626.882	3080
626.934	3010
626.985	3090
627.037	3018
627.089	3030
627.141	3064
627.193	2996
627.245	3016
627.297	3034
627.349	3086
627.401	3088
627.453	3020
627.505	3092
627.557	3076
627.609	3080
627.661	3054
627.713	3138
627.765	3074
627.817	3078
627.868	3044
627.92	3080
627.972	3102
628.024	3010
628.076	3076
628.128	3098
628.18	3090
628.232	3136
628.284	3096
628.336	3110
628.388	3164
628.44	3188
628.492	3168
628.544	3138
628.596	3088
628.647	3130
628.699	3112
628.751	3196
628.803	3148
628.855	3142
628.907	3128
628.959	3148
629.011	3158
629.063	3198
629.115	3136
629.167	3214
629.219	3192
629.271	3156
629.322	3216
629.374	3188
629.426	3250
629.478	3182
629.53	3220
629.582	3202
629.634	3232
629.686	3254
629.738	3284
629.79	3210
629.842	3250
629.894	3258
629.945	3270
629.997	3302
630.049	3298
630.101	3204
630.153	3246
630.205	3276
630.257	3262
630.309	3316
630.361	3316
630.413	3310
630.465	3310
630.517	3282
630.568	3294
630.62	3228
630.672	3366
630.724	3344
630.776	3292
630.828	3344
630.88	3310
630.932	3312
630.984	3320
631.036	3332
631.088	3390
631.14	3356
631.191	3384
631.243	3360
631.295	3420
631.347	3414
631.399	3322
631.451	3354
631.503	3312
631.555	3364
631.607	3466
631.659	3420
631.71	3406
631.762	3426
631.814	3396
631.866	3444
631.918	3444
631.97	3468
632.022	3380
632.074	3490
632.126	3506
632.178	3398
632.229	3482
632.281	3480
632.333	3530
632.385	3472
632.437	3566
632.489	3460
632.541	3512
632.593	3494
632.645	3504
632.696	3580
632.748	3470
632.8	3610
632.852	3570
632.904	3514
632.956	3568
633.008	3570
633.06	3526
633.112	3590
633.164	3592
633.215	3636
633.267	3592
633.319	3632
633.371	3596
633.423	3638
633.475	3598
633.527	3664
633.579	3632
633.63	3704
633.682	3666
633.734	3642
633.786	3678
633.838	3644
633.89	3700
633.942	3680
633.994	3702
634.046	3734
634.097	3768
634.149	3776
634.201	3750
634.253	3738
634.305	3732
634.357	3788
634.409	3782
634.461	3756
634.512	3790
634.564	3758
634.616	3866
634.668	3778
634.72	3844
634.772	3896
634.824	3906
634.876	3910
634.927	3818
634.979	3938
635.031	3884
635.083	3950
635.135	3942
635.187	3956
635.239	3960
635.291	4000
635.342	3946
635.394	4032
635.446	4008
635.498	4112
635.55	4122
635.602	4144
635.654	4070
635.705	4088
635.757	4146
635.809	4128
635.861	4274
635.913	4266
635.965	4282
636.017	4322
636.068	4328
636.12	4304
636.172	4400
636.224	4454
636.276	4428
636.328	4474
636.38	4528
636.431	4618
636.483	4588
636.535	4622
636.587	4694
636.639	4678
636.691	4792
636.743	4718
636.794	4732
636.846	4830
636.898	4934
636.95	5012
637.002	4962
637.054	4978
637.106	5102
637.157	5114
637.209	5086
637.261	5172
637.313	5238
637.365	5238
637.417	5228
637.469	5350
637.52	5302
637.572	5374
637.624	5434
637.676	5482
637.728	5484
637.78	5560
637.831	5576
637.883	5518
637.935	5570
637.987	5576
638.039	5606
638.091	5580
638.143	5580
638.194	5660
638.246	5594
638.298	5664
638.35	5656
638.402	5710
638.454	5630
638.505	5706
638.557	5662
638.609	5692
638.661	5662
638.713	5628
638.765	5638
638.816	5608
638.868	5622
638.92	5572
638.972	5538
639.024	5518
639.076	5538
639.127	5536
639.179	5448
639.231	5438
639.283	5502
639.335	5380
639.387	5362
639.438	5302
639.49	5340
639.542	5282
639.594	5322
639.646	5196
639.698	5270
639.749	5094
639.801	5120
639.853	5172
639.905	5136
639.957	5146
640.008	5062
640.06	5022
640.112	5002
640.164	5030
640.216	4980
640.268	4956
640.319	5014
640.371	4962
640.423	4932
640.475	4994
640.527	4908
640.578	4900
640.63	4880
640.682	4892
640.734	4864
640.786	4862
640.838	4840
640.889	4892
640.941	4812
640.993	4806
641.045	4834
641.097	4756
641.148	4806
641.2	4700
641.252	4760
641.304	4740
641.356	4762
641.408	4710
641.459	4746
641.511	4768
641.563	4738
641.615	4740
641.667	4732
641.718	4774
641.77	4760
641.822	4722
641.874	4716
641.926	4688
641.977	4650
642.029	4790
642.081	4674
642.133	4774
642.185	4750
642.236	4728
642.288	4726
642.34	4730
642.392	4794
642.444	4736
642.495	4704
642.547	4694
642.599	4708
642.651	4722
642.703	4726
642.754	4730
642.806	4722
642.858	4718
642.91	4726
642.962	4746
643.013	4752
643.065	4742
643.117	4768
643.169	4734
643.221	4730
643.272	4758
643.324	4806
643.376	4754
643.428	4790
643.479	4794
643.531	4750
643.583	4846
643.635	4796
643.687	4806
643.738	4742
643.79	4746
643.842	4758
643.894	4778
643.946	4732
643.997	4774
644.049	4804
644.101	4776
644.153	4822
644.205	4778
644.256	4808
644.308	4836
644.36	4722
644.412	4818
644.463	4812
644.515	4836
644.567	4872
644.619	4852
644.671	4762
644.722	4798
644.774	4826
644.826	4804
644.878	4884
644.929	4878
644.981	4892
645.033	4928
645.085	4908
645.136	4898
645.188	4920
645.24	4858
645.292	4882
645.344	4822
645.395	4920
645.447	4936
645.499	4816
645.551	4920
645.602	4918
645.654	4940
645.706	4960
645.758	4904
645.81	4930
645.861	4902
645.913	4960
645.965	4984
646.017	4910
646.068	4968
646.12	4932
646.172	4962
646.224	4950
646.275	4962
646.327	5012
646.379	5034
646.431	4976
646.482	4936
646.534	4990
646.586	4980
646.638	5008
646.689	5004
646.741	5060
646.793	5054
646.845	5004
646.896	5054
646.948	4976
647	5074
647.052	5040
647.104	5110
647.155	4962
647.207	5074
647.259	5056
647.31	4984
647.362	5046
647.414	5030
647.466	5120
647.518	5014
647.569	5074
647.621	5044
647.673	5110
647.724	5102
647.776	5020
647.828	5124
647.88	5120
647.931	5098
647.983	5152
648.035	5196
648.087	5110
648.138	5130
648.19	5080
648.242	5198
648.294	5182
648.345	5128
648.397	5192
648.449	5184
648.501	5242
648.552	5222
648.604	5220
648.656	5188
648.708	5218
648.759	5230
648.811	5170
648.863	5204
648.915	5186
648.966	5230
649.018	5208
649.07	5202
649.121	5308
649.173	5262
649.225	5266
649.277	5274
649.328	5362
649.38	5278
649.432	5220
649.484	5314
649.535	5288
649.587	5308
649.639	5442
649.69	5378
649.742	5408
649.794	5342
649.846	5368
649.897	5314
649.949	5358
650.001	5352
650.053	5394
650.104	5318
650.156	5440
650.208	5462
650.259	5338
650.311	5400
650.363	5424
650.415	5440
650.466	5448
650.518	5462
650.57	5520
650.621	5498
650.673	5402
650.725	5434
650.777	5550
650.828	5430
650.88	5534
650.932	5502
650.984	5516
651.035	5582
651.087	5568
651.139	5576
651.19	5526
651.242	5588
651.294	5508
651.345	5592
651.397	5562
651.449	5604
651.501	5590
651.552	5564
651.604	5568
651.656	5584
651.707	5602
651.759	5622
651.811	5684
651.863	5634
651.914	5616
651.966	5696
652.018	5674
652.069	5712
652.121	5662
652.173	5712
652.224	5668
652.276	5692
652.328	5750
652.38	5660
652.431	5764
652.483	5706
652.535	5756
652.586	5744
652.638	5836
652.69	5824
652.741	5802
652.793	5764
652.845	5696
652.897	5748
652.948	5794
653	5878
653.052	5898
653.103	5864
653.155	5772
653.207	5924
653.258	5774
653.31	5950
653.362	5952
653.413	5850
653.465	5874
653.517	5952
653.568	5988
653.62	5954
653.672	5982
653.724	6106
653.775	6064
653.827	5952
653.879	6018
653.93	5968
653.982	6034
654.034	6012
654.085	6098
654.137	6086
654.189	6080
654.24	6058
654.292	6094
654.344	6186
654.395	6098
654.447	6178
654.499	6076
654.55	6188
654.602	6176
654.654	6176
654.705	6270
654.757	6152
654.809	6214
654.86	6194
654.912	6202
654.964	6212
655.016	6306
655.067	6324
655.119	6280
655.17	6322
655.222	6394
655.274	6340
655.326	6282
655.377	6360
655.429	6354
655.481	6410
655.532	6398
655.584	6396
655.635	6418
655.687	6444
655.739	6470
655.79	6484
655.842	6410
655.894	6534
655.945	6554
655.997	6502
656.049	6534
656.1	6602
656.152	6502
656.204	6672
656.255	6614
656.307	6628
656.359	6616
656.41	6658
656.462	6642
656.514	6710
656.565	6740
656.617	6646
656.669	6730
656.72	6746
656.772	6760
656.824	6806
656.875	6724
656.927	6778
656.979	6768
657.03	6778
657.082	6888
657.134	6780
657.185	6760
657.237	6868
657.288	6840
657.34	6958
657.392	6842
657.443	6928
657.495	6942
657.547	6950
657.598	6928
657.65	6978
657.702	6984
657.753	7014
657.805	6982
657.857	6988
657.908	6992
657.96	7088
658.011	6936
658.063	7060
658.115	6998
658.166	7042
658.218	7118
658.27	7072
658.321	7072
658.373	7074
658.425	7128
658.476	7096
658.528	7068
658.579	7160
658.631	7100
658.683	7070
658.734	7164
658.786	7168
658.838	7006
658.889	7130
658.941	7190
658.992	7156
659.044	7212
659.096	7174
659.147	7058
659.199	7140
659.251	7076
659.302	7262
659.354	7132
659.406	7206
659.457	7196
659.509	7328
659.56	7162
659.612	7294
659.664	7222
659.715	7240
659.767	7212
659.818	7228
659.87	7208
659.922	7180
659.973	7272
660.025	7282
660.077	7266
660.128	7254
660.18	7270
660.231	7294
660.283	7178
660.335	7250
660.386	7296
660.438	7310
660.49	7140
660.541	7308
660.593	7210
660.644	7320
660.696	7296
660.748	7250
660.799	7254
660.851	7254
660.902	7142
660.954	7346
661.006	7320
661.057	7286
661.109	7282
661.16	7222
661.212	7216
661.264	7318
661.315	7236
661.367	7258
661.418	7246
661.47	7280
661.522	7220
661.573	7262
661.625	7240
661.676	7276
661.728	7246
661.78	7294
661.831	7256
661.883	7158
661.934	7274
661.986	7302
662.038	7230
662.089	7294
662.141	7316
662.192	7264
662.244	7214
662.296	7212
662.347	7300
662.399	7258
662.45	7302
662.502	7260
662.554	7296
662.605	7316
662.657	7304
662.708	7258
662.76	7316
662.811	7188
662.863	7284
662.915	7218
662.966	7114
663.018	7206
663.069	7216
663.121	7256
663.173	7298
663.224	7250
663.276	7314
663.327	7270
663.379	7206
663.43	7236
663.482	7118
663.534	7178
663.585	7278
663.637	7304
663.688	7374
663.74	7214.78
663.792	7260.17
663.843	7314.69
663.895	7255.16
663.946	7375.17
663.998	7377.71
664.049	7377.87
664.101	7368.53
664.153	7303.31
664.204	7284.15
664.256	7350.9
664.307	7242.04
664.359	7362.46
664.41	7313.45
664.462	7334.71
664.513	7296.93
664.565	7325.98
664.617	7274.67
664.668	7291.75
664.72	7332.98
664.771	7306.79
664.823	7311.22
664.874	7313.54
664.926	7284.03
664.978	7343.47
665.029	7285.23
665.081	7341.43
665.132	7258.66
665.184	7322.78
665.235	7278.98
665.287	7269.97
665.339	7290.79
665.39	7264.92
665.442	7350.83
665.493	7279.84
665.545	7295.39
665.596	7247.34
665.648	7293.81
665.699	7290.48
665.751	7272.39
665.802	7293.09
665.854	7297.54
665.906	7366.27
665.957	7333.42
666.009	7283.46
666.06	7288.23
666.112	7308.62
666.163	7308.98
666.215	7330.81
666.266	7274.3
666.318	7317.16
666.37	7296.91
666.421	7282.33
666.473	7247.12
666.524	7292.08
666.576	7331.79
666.627	7312.98
666.679	7283.01
666.73	7301.65
666.782	7251.62
666.833	7254.96
666.885	7256.56
666.937	7257.53
666.988	7275.26
667.04	7269.72
667.091	7270.56
667.143	7281.81
667.194	7345.93
667.246	7350.8
667.297	7347.05
667.349	7309.11
667.4	7301.36
667.452	7352.59
667.503	7312.93
667.555	7348.8
667.607	7327.38
667.658	7351.28
667.71	7346.79
667.761	7304.53
667.813	7289.93
667.864	7323.86
667.916	7312.84
667.967	7324.28
668.019	7272.42
668.07	7287.29
668.122	7357.84
668.173	7372.22
668.225	7332.15
668.276	7314.83
668.328	7295.74
668.379	7299.65
668.431	7335.74
668.482	7345.09
668.534	7349.6
668.586	7320.31
668.637	7312.99
668.689	7310.84
668.74	7354.76
668.792	7343.71
668.843	7332.8
668.895	7354.41
668.935	7316
668.987	7198
669.038	7242
669.09	7374
669.142	7364
669.194	7266
669.245	7342
669.297	7262
669.349	7312
669.401	7318
669.453	7304
669.504	7376
669.556	7294
669.608	7404
669.66	7356
669.711	7288
669.763	7296
669.815	7432
669.867	7390
669.918	7314
669.97	7340
670.022	7276
670.074	7446
670.125	7288
670.177	7396
670.229	7278
670.281	7354
670.332	7170
670.384	7372
670.436	7364
670.488	7308
670.539	7230
670.591	7310
670.643	7306
670.695	7310
670.747	7334
670.798	7306
670.85	7290
670.902	7368
670.953	7292
671.005	7386
671.057	7354
671.109	7308
671.161	7330
671.212	7264
671.264	7328
671.316	7358
671.367	7338
671.419	7506
671.471	7328
671.523	7334
671.575	7408
671.626	7356
671.678	7344
671.73	7400
671.781	7400
671.833	7310
671.885	7410
671.937	7344
671.988	7382
672.04	7416
672.092	7372
672.144	7380
672.195	7364
672.247	7390
672.299	7386
672.351	7476
672.402	7370
672.454	7416
672.506	7510
672.558	7420
672.609	7450
672.661	7496
672.713	7444
672.765	7350
672.816	7394
672.868	7462
672.92	7386
672.971	7500
673.023	7508
673.075	7464
673.127	7492
673.178	7514
673.23	7496
673.282	7490
673.334	7420
673.385	7494
673.437	7496
673.489	7536
673.54	7596
673.592	7546
673.644	7550
673.696	7588
673.747	7492
673.799	7516
673.851	7502
673.903	7586
673.954	7532
674.006	7660
674.058	7606
674.109	7546
674.161	7556
674.213	7702
674.265	7558
674.316	7658
674.368	7706
674.42	7602
674.471	7494
674.523	7702
674.575	7712
674.627	7636
674.678	7670
674.73	7706
674.782	7706
674.833	7654
674.885	7718
674.937	7802
674.989	7698
675.04	7710
675.092	7672
675.144	7660
675.195	7734
675.247	7858
675.299	7684
675.351	7690
675.402	7788
675.454	7702
675.506	7792
675.557	7754
675.609	7664
675.661	7722
675.713	7836
675.764	7828
675.816	7802
675.868	7702
675.919	7786
675.971	7864
676.023	7848
676.074	7828
676.126	7774
676.178	7856
676.23	7870
676.281	7902
676.333	7840
676.385	7924
676.436	7838
676.488	7918
676.54	7908
676.591	7748
676.643	7852
676.695	7814
676.747	7806
676.798	7910
676.85	7886
676.902	7890
676.953	7772
677.005	7894
677.057	7924
677.108	7862
677.16	7894
677.212	7864
677.263	8010
677.315	7938
677.367	7914
677.419	7826
677.47	7878
677.522	7856
677.574	7902
677.625	7920
677.677	7886
677.729	7940
677.78	7766
677.832	7868
677.884	7886
677.935	7902
677.987	7984
678.039	7866
678.091	7870
678.142	7900
678.194	7774
678.246	7978
678.297	7944
678.349	7856
678.401	7826
678.452	7864
678.504	7914
678.556	7910
678.607	7840
678.659	7940
678.711	7850
678.762	7834
678.814	7904
678.866	7966
678.917	7926
678.969	7906
679.021	7950
679.072	7934
679.124	7926
679.176	7946
679.227	7862
679.279	7840
679.331	7830
679.382	7886
679.434	7940
679.486	7848
679.537	7948
679.589	7924
679.641	7944
679.692	7922
679.744	7940
679.796	8014
679.847	7922
679.899	7958
679.951	7962
680.003	8056
680.054	7976
680.106	7982
680.157	7880
680.209	7918
680.261	7970
680.312	7988
680.364	7978
680.416	8040
680.467	8024
680.519	7956
680.571	7938
680.622	8054
680.674	8026
680.726	8036
680.777	7970
680.829	7988
680.881	8066
680.932	7994
680.984	8082
681.036	8028
681.087	8018
681.139	8050
681.191	8040
681.242	8068
681.294	7984
681.346	8038
681.397	8040
681.449	8034
681.501	8088
681.552	8060
681.604	8010
681.656	8088
681.707	8072
681.759	8150
681.81	8146
681.862	8142
681.914	8144
681.965	8122
682.017	8102
682.069	8174
682.12	8144
682.172	8226
682.224	8170
682.275	8164
682.327	8194
682.379	8156
682.43	8226
682.482	8128
682.533	8204
682.585	8238
682.637	8098
682.688	8182
682.74	8240
682.792	8188
682.843	8054
682.895	8212
682.947	8152
682.998	8164
683.05	8136
683.102	8182
683.153	8196
683.205	8164
683.256	8224
683.308	8180
683.36	8258
683.411	8232
683.463	8162
683.515	8186
683.566	8200
683.618	8132
683.669	8246
683.721	8200
683.773	8208
683.824	8110
683.876	8164
683.928	8186
683.979	8108
684.031	8226
684.082	8164
684.134	8134
684.186	8222
684.237	8142
684.289	8154
684.341	8090
684.392	8234
684.444	8092
684.495	8106
684.547	8136
684.599	8082
684.65	8184
684.702	8104
684.754	8122
684.805	8188
684.857	8160
684.908	8200
684.96	8178
685.012	8120
685.063	8172
685.115	8178
685.166	8138
685.218	8106
685.27	8150
685.321	8142
685.373	8150
685.424	8094
685.476	7948
685.528	8064
685.579	8076
685.631	8082
685.683	7990
685.734	8024
685.786	8116
685.837	7992
685.889	7952
685.941	8052
685.992	7942
686.044	8080
686.095	8068
686.147	7954
686.199	7960
686.25	7970
686.302	8030
686.353	7958
686.405	8034
686.457	8026
686.508	7980
686.56	8052
686.611	7984
686.663	7998
686.715	8012
686.766	7994
686.818	8010
686.869	7956
686.921	8010
686.973	8038
687.024	8004
687.076	7924
687.127	7934
687.179	8050
687.231	7992
687.282	7846
687.334	7932
687.385	7954
687.437	7914
687.489	7942
687.54	7964
687.592	7950
687.643	8006
687.695	7994
687.747	7984
687.798	7996
687.85	7954
687.901	7986
687.953	7942
688.004	7960
688.056	8006
688.108	7944
688.159	7920
688.211	8096
688.262	7968
688.314	7934
688.366	7992
688.417	7980
688.469	7936
688.52	7954
688.572	7906
688.623	8014
688.675	8036
688.727	7988
688.778	7920
688.83	7996
688.881	7910
688.933	7964
688.984	7964
689.036	7922
689.088	7858
689.139	7982
689.191	7924
689.242	7828
689.294	7882
689.346	7970
689.397	7876
689.449	7994
689.5	8046
689.552	7956
689.603	7924
689.655	7870
689.706	7920
689.758	7958
689.81	7870
689.861	7900
689.913	7894
689.964	7888
690.016	7840
690.067	7820
690.119	7882
690.171	7962
690.222	7830
690.274	7912
690.325	7788
690.377	7988
690.428	7806
690.48	7862
690.531	7888
690.583	7948
690.635	7936
690.686	7826
690.738	7858
690.789	7766
690.841	7770
690.892	7874
690.944	7858
690.996	7788
691.047	7800
691.099	7734
691.15	7818
691.202	7806
691.253	7836
691.305	7780
691.356	7774
691.408	7776
691.459	7864
691.511	7786
691.563	7782
691.614	7672
691.666	7692
691.717	7756
691.769	7746
691.82	7772
691.872	7702
691.923	7674
691.975	7668
692.026	7642
692.078	7680
692.13	7768
692.181	7644
692.233	7766
692.284	7710
692.336	7712
692.387	7672
692.439	7724
692.49	7704
692.542	7586
692.593	7716
692.645	7710
692.697	7734
692.748	7702
692.8	7672
692.851	7714
692.903	7672
692.954	7634
693.006	7692
693.057	7594
693.109	7674
693.16	7552
693.212	7584
693.263	7668
693.315	7634
693.366	7652
693.418	7674
693.47	7622
693.521	7634
693.573	7616
693.624	7600
693.676	7588
693.727	7606
693.779	7640
693.83	7596
693.882	7648
693.933	7668
693.985	7554
694.036	7624
694.088	7700
694.139	7522
694.191	7644
694.242	7484
694.294	7630
694.345	7584
694.397	7418
694.448	7624
694.5	7620
694.552	7530
694.603	7462
694.655	7492
694.706	7544
694.758	7564
694.809	7564
694.861	7498
694.912	7638
694.964	7548
695.015	7572
695.067	7496
695.118	7486
695.17	7484
695.221	7482
695.273	7580
695.324	7560
695.376	7550
695.427	7542
695.479	7528
695.53	7484
695.582	7430
695.633	7522
695.685	7480
695.736	7496
695.788	7494
695.839	7398
695.891	7510
695.942	7488
695.994	7374
696.045	7448
696.097	7542
696.148	7496
696.2	7450
696.251	7490
696.303	7530
696.354	7456
696.406	7510
696.457	7464
696.509	7376
696.56	7406
696.612	7430
696.663	7442
696.715	7440
696.766	7336
696.818	7336
696.869	7424
696.921	7460
696.972	7364
697.024	7442
697.075	7402
697.127	7326
697.178	7382
697.23	7394
697.281	7358
697.333	7314
697.384	7410
697.436	7394
697.487	7390
697.539	7330
697.59	7358
697.642	7370
697.693	7238
697.745	7380
697.796	7328
697.847	7306
697.899	7262
697.95	7290
698.002	7284
698.053	7312
698.105	7254
698.156	7210
698.208	7222
698.259	7208
698.311	7246
698.362	7184
698.414	7202
698.465	7282
698.517	7124
698.568	7240
698.62	7298
698.671	7230
698.723	7204
698.774	7198
698.826	7136
698.877	7228
698.928	7146
698.98	7150
699.031	7186
699.083	7164
699.134	7156
699.186	7130
699.237	7138
699.289	7144
699.34	7150
699.392	7204
699.443	7074
699.495	7134
699.546	7198
699.598	7046
699.649	7092
699.7	7190
699.752	7094
699.803	7106
699.855	7172
699.906	7168
699.958	7102
700.009	7182
700.061	7036
700.112	7088
700.164	7080
700.215	7084
700.266	7188
700.318	6988
700.369	7034
700.421	7166
700.472	7028
700.524	7012
700.575	7058
700.627	7060
700.678	7164
700.73	6994
700.781	7068
700.832	7092
700.884	7102
700.935	7106
700.987	7136
701.038	7076
701.09	7084
701.141	7076
701.193	6974
701.244	6962
701.295	7036
701.347	7070
701.398	7054
701.45	7088
701.501	7032
701.553	7010
701.604	7012
701.656	7004
701.707	7068
701.758	7082
701.81	7026
701.861	7054
701.913	7046
701.964	6988
702.016	7036
702.067	7086
702.119	7068
702.17	7114
702.221	7114
702.273	7092
702.324	7104
702.376	6996
702.427	7012
702.479	6962
702.53	7064
702.581	7002
702.633	7120
702.684	7004
702.736	7168
702.787	7078
702.839	7048
702.89	7072
702.941	7046
702.993	7074
703.044	7114
703.096	7016
703.147	7004
703.199	7080
703.25	7036
703.301	7150
703.353	7042
703.404	7078
703.456	7032
703.507	7068
703.558	7102
703.61	7042
703.661	7052
703.713	7038
703.764	7022
703.816	6976
703.867	7044
703.918	7024
703.97	7028
704.021	7026
704.073	6960
704.124	7070
704.175	7052
704.227	6996
704.278	7018
704.33	6990
704.381	6992
704.432	7026
704.484	6996
704.535	7032
704.587	6892
704.638	6982
704.69	7004
704.741	6880
704.792	6952
704.844	6990
704.895	6932
704.947	6972
704.998	6916
705.049	7022
705.101	6920
705.152	6942
705.204	6880
705.255	6928
705.306	6904
705.358	6838
705.409	6826
705.461	6916
705.512	6898
705.563	6928
705.615	6782
705.666	6834
705.718	6914
705.769	6820
705.82	6792
705.872	6772
705.923	6860
705.974	6860
706.026	6814
706.077	6794
706.129	6892
706.18	6800
706.231	6822
706.283	6752
706.334	6734
706.386	6756
706.437	6878
706.488	6738
706.54	6834
706.591	6720
706.643	6664
706.694	6690
706.745	6708
706.797	6718
706.848	6724
706.899	6696
706.951	6650
707.002	6718
707.054	6702
707.105	6726
707.156	6700
707.208	6590
707.259	6676
707.31	6648
707.362	6644
707.413	6630
707.465	6634
707.516	6678
707.567	6624
707.619	6616
707.67	6678
707.721	6720
707.773	6620
707.824	6532
707.876	6624
707.927	6676
707.978	6618
708.03	6564
708.081	6566
708.132	6616
708.184	6664
708.235	6596
708.287	6608
708.338	6552
708.389	6594
708.441	6590
708.492	6578
708.543	6576
708.595	6554
708.646	6466
708.697	6434
708.749	6580
708.8	6540
708.852	6626
708.903	6566
708.954	6596
709.006	6580
709.057	6506
709.108	6578
709.16	6558
709.211	6552
709.262	6530
709.314	6630
709.365	6614
709.416	6574
709.468	6552
709.519	6494
709.57	6512
709.622	6496
709.673	6524
709.725	6500
709.776	6462
709.827	6482
709.879	6526
709.93	6464
709.981	6524
710.033	6444
710.084	6448
710.135	6508
710.187	6436
710.238	6402
710.289	6488
710.341	6512
710.392	6388
710.443	6484
710.495	6470
710.546	6448
710.597	6546
710.649	6426
710.7	6442
710.751	6400
710.803	6488
710.854	6574
710.905	6418
710.957	6438
711.008	6386
711.059	6444
711.111	6426
711.162	6414
711.213	6386
711.265	6408.55
711.316	6389.85
711.367	6422.19
711.419	6364.62
711.47	6396.15
711.521	6404.41
711.573	6403.51
711.624	6421.71
711.675	6421.55
711.727	6347.34
711.778	6363.17
711.829	6344.89
711.881	6408.03
711.932	6383.55
711.983	6218.85
712.035	6252.41
712.086	6352.78
712.137	6329.71
712.189	6304.99
712.24	6361.82
712.291	6284.32
712.343	6262.95
712.394	6225.88
712.445	6220.16
712.496	6256.27
712.548	6285.76
712.599	6257.79
712.65	6265.84
712.702	6283.55
712.753	6293.48
712.804	6212.65
712.856	6258.36
712.907	6195
712.958	6206.08
713.01	6226.59
713.061	6187.31
713.112	6205.67
713.164	6217.6
713.215	6190.38
713.266	6135.47
713.317	6186.05
713.369	6181.45
713.42	6163.94
713.471	6226.19
713.523	6197.21
713.574	6159.43
713.625	6167.07
713.677	6156.83
713.728	6147.35
713.779	6137.05
713.831	6149.68
713.882	6080.91
713.933	6084.25
713.984	6092.38
714.036	6052.25
714.087	6082.33
714.138	6053.3
714.19	6101.08
714.241	6065.11
714.292	6072.88
714.343	6097.3
714.395	6064.84
714.446	6061.74
714.497	6066.23
714.549	6037.49
714.6	6025.35
714.651	6019.67
714.703	5973.51
714.754	6006.54
714.805	6002.96
714.856	6056.92
714.908	6005.36
714.959	6012.63
715.01	6016.34
715.062	6002.39
715.113	5997.8
715.164	5981.88
715.215	5986.28
715.267	6007.12
715.318	5964.64
715.369	5913.62
715.421	5898.21
715.472	5956.04
715.523	5960.33
715.574	5933.6
715.626	5968.28
715.677	5951.32
715.728	5913.37
715.779	5947.49
715.831	5946.24
715.882	5948.16
715.933	5923.8
715.985	5845.33
716.036	5882.29
716.087	5880.52
716.138	5855.63
716.19	5862.25
716.241	5875.33
716.292	5842.52
716.343	5833.67
716.395	5866.2
716.433	5860
716.485	5852
716.536	5834
716.588	5836
716.639	5872
716.691	5814
716.742	5846
716.794	5910
716.845	5778
716.897	5760
716.948	5788
717	5834
717.052	5762
717.103	5740
717.155	5822
717.206	5732
717.258	5778
717.309	5850
717.361	5792
717.412	5800
717.464	5728
717.515	5730
717.567	5714
717.618	5762
717.67	5738
717.721	5798
717.773	5744
717.824	5762
717.876	5652
717.927	5726
717.979	5638
718.03	5732
718.082	5700
718.133	5672
718.185	5654
718.237	5622
718.288	5682
718.34	5678
718.391	5666
718.443	5738
718.494	5676
718.546	5600
718.597	5644
718.649	5690
718.7	5536
718.752	5616
718.803	5582
718.855	5588
718.906	5628
718.958	5644
719.009	5590
719.061	5630
719.112	5522
719.164	5624
719.215	5614
719.267	5630
719.318	5600
719.37	5580
719.421	5582
719.473	5574
719.524	5530
719.576	5562
719.627	5574
719.679	5610
719.73	5546
719.782	5526
719.833	5446
719.885	5572
719.936	5504
719.988	5508
720.039	5508
720.091	5562
720.142	5624
720.194	5510
720.245	5532
720.297	5458
720.348	5580
720.4	5468
720.451	5444
720.503	5460
720.554	5442
720.606	5468
720.657	5416
720.709	5464
720.76	5456
720.812	5468
720.863	5444
720.915	5444
720.966	5416
721.018	5478
721.069	5464
721.121	5414
721.172	5420
721.224	5360
721.275	5342
721.327	5394
721.378	5312
721.43	5366
721.481	5360
721.532	5340
721.584	5364
721.635	5420
721.687	5416
721.738	5378
721.79	5358
721.841	5356
721.893	5318
721.944	5192
721.996	5302
722.047	5262
722.099	5216
722.15	5234
722.202	5242
722.253	5356
722.305	5276
722.356	5244
722.408	5224
722.459	5228
722.511	5228
722.562	5222
722.614	5212
722.665	5210
722.716	5218
722.768	5186
722.819	5160
722.871	5190
722.922	5152
722.974	5196
723.025	5172
723.077	5174
723.128	5164
723.18	5128
723.231	5160
723.283	5176
723.334	5142
723.386	5138
723.437	5118
723.488	5202
723.54	5100
723.591	5054
723.643	5050
723.694	5104
723.746	5110
723.797	5090
723.849	5178
723.9	5088
723.952	5072
724.003	5048
724.055	5088
724.106	5134
724.157	5040
724.209	5066
724.26	5072
724.312	5050
724.363	5070
724.415	5076
724.466	4976
724.518	4938
724.569	5036
724.621	4988
724.672	5040
724.723	4964
724.775	5024
724.826	5032
724.878	5018
724.929	4988
724.981	4908
725.032	4974
725.084	5026
725.135	4930
725.187	4944
725.238	4996
725.289	5036
725.341	5004
725.392	4968
725.444	4940
725.495	4926
725.547	4872
725.598	4910
725.65	4942
725.701	4928
725.752	4908
725.804	4928
725.855	4950
725.907	4872
725.958	4936
726.01	4904
726.061	4860
726.112	4926
726.164	4868
726.215	4906
726.267	4912
726.318	4864
726.37	4946
726.421	4892
726.473	4884
726.524	4858
726.575	4870
726.627	4866
726.678	4790
726.73	4846
726.781	4794
726.833	4874
726.884	4822
726.935	4788
726.987	4846
727.038	4778
727.09	4824
727.141	4810
727.193	4808
727.244	4766
727.295	4732
727.347	4754
727.398	4746
727.45	4758
727.501	4694
727.552	4740
727.604	4680
727.655	4684
727.707	4760
727.758	4724
727.81	4702
727.861	4754
727.912	4706
727.964	4682
728.015	4648
728.067	4658
728.118	4684
728.17	4676
728.221	4686
728.272	4666
728.324	4672
728.375	4554
728.427	4594
728.478	4636
728.529	4698
728.581	4630
728.632	4636
728.684	4562
728.735	4584
728.786	4646
728.838	4624
728.889	4554
728.941	4580
728.992	4656
729.044	4550
729.095	4552
729.146	4534
729.198	4470
729.249	4544
729.301	4572
729.352	4506
729.403	4460
729.455	4518
729.506	4532
729.558	4488
729.609	4462
729.66	4444
729.712	4424
729.763	4452
729.815	4460
729.866	4452
729.917	4480
729.969	4428
730.02	4468
730.072	4436
730.123	4516
730.174	4402
730.226	4352
730.277	4406
730.329	4418
730.38	4430
730.431	4402
730.483	4398
730.534	4384
730.586	4438
730.637	4394
730.688	4394
730.74	4324
730.791	4348
730.842	4290
730.894	4338
730.945	4352
730.997	4368
731.048	4340
731.099	4340
731.151	4398
731.202	4292
731.254	4256
731.305	4318
731.356	4290
731.408	4334
731.459	4294
731.51	4330
731.562	4222
731.613	4260
731.665	4280
731.716	4306
731.767	4286
731.819	4264
731.87	4280
731.922	4278
731.973	4276
732.024	4282
732.076	4252
732.127	4270
732.178	4308
732.23	4254
732.281	4262
732.333	4286
732.384	4192
732.435	4186
732.487	4256
732.538	4268
732.589	4190
732.641	4266
732.692	4286
732.744	4262
732.795	4192
732.846	4206
732.898	4198
732.949	4158
733	4166
733.052	4178
733.103	4168
733.154	4190
733.206	4234
733.257	4196
733.309	4206
733.36	4192
733.411	4158
733.463	4216
733.514	4184
733.565	4194
733.617	4116
733.668	4232
733.719	4140
733.771	4168
733.822	4134
733.873	4120
733.925	4176
733.976	4194
734.028	4112
734.079	4150
734.13	4210
734.182	4168
734.233	4202
734.284	4122
734.336	4146
734.387	4126
734.438	4190
734.49	4214
734.541	4060
734.592	4142
734.644	4146
734.695	4132
734.747	4186
734.798	4170
734.849	4074
734.901	4150
734.952	4156
735.003	4146
735.055	4064
735.106	4126
735.157	4160
735.209	4092
735.26	4042
735.311	4086
735.363	4068
735.414	4122
735.465	4156
735.517	4156
735.568	4088
735.619	4146
735.671	4070
735.722	4100
735.773	4142
735.825	4082
735.876	4090
735.927	4132
735.979	4114
736.03	4126
736.081	4080
736.133	4044
736.184	4100
736.235	4058
736.287	4070
736.338	4094
736.389	4048
736.441	4086
736.492	4146
736.543	4094
736.595	4110
736.646	4088
736.697	4064
736.749	4110
736.8	4026
736.851	4088
736.903	4098
736.954	4054
737.005	4138
737.057	4092
737.108	4138
737.159	4050
737.211	4132
737.262	4094
737.313	4072
737.365	4066
737.416	4064
737.467	4134
737.518	4118
737.57	4086
737.621	4120
737.672	4112
737.724	4092
737.775	4128
737.826	4130
737.878	4142
737.929	4120
737.98	4144
738.032	4110
738.083	4144
738.134	4144
738.186	4130
738.237	4086
738.288	4104
738.339	4072
738.391	4122
738.442	4144
738.493	4090
738.545	4108
738.596	4138
738.647	4084
738.699	4096
738.75	4076
738.801	4034
738.853	4000
738.904	4080
738.955	4070
739.006	4022
739.058	3984
739.109	4078
739.16	4020
739.212	4062
739.263	4044
739.314	4070
739.366	3938
739.417	4018
739.468	3998
739.519	3972
739.571	4030
739.622	4050
739.673	3992
739.725	4020
739.776	3964
739.827	4020
739.878	3932
739.93	3928
739.981	3878
740.032	3946
740.084	3876
740.135	3910
740.186	3912
740.237	3858
740.289	3890
740.34	3888
740.391	3920
740.443	3886
740.494	3890
740.545	3886
740.596	3864
740.648	3846
740.699	3822
740.75	3860
740.802	3848
740.853	3830
740.904	3870
740.956	3852
741.007	3764
741.058	3834
741.109	3814
741.161	3838
741.212	3812
741.263	3804
741.314	3816
741.366	3876
741.417	3806
741.468	3810
741.52	3850
741.571	3772
741.622	3794
741.673	3780
741.725	3762
741.776	3784
741.827	3782
741.878	3816
741.93	3794
741.981	3736
742.032	3750
742.083	3744
742.135	3668
742.186	3692
742.237	3806
742.289	3740
742.34	3762
742.391	3772
742.442	3764
742.494	3740
742.545	3778
742.596	3674
742.647	3686
742.699	3658
742.75	3678
742.801	3734
742.852	3724
742.904	3680
742.955	3658
743.006	3690
743.057	3654
743.109	3692
743.16	3690
743.211	3688
743.263	3682
743.314	3644
743.365	3698
743.416	3596
743.468	3648
743.519	3654
743.57	3634
743.621	3584
743.672	3578
743.724	3648
743.775	3594
743.826	3640
743.878	3634
743.929	3614
743.98	3602
744.031	3618
744.083	3604
744.134	3628
744.185	3562
744.236	3596
744.287	3596
744.339	3580
744.39	3540
744.441	3620
744.492	3580
744.544	3594
744.595	3568
744.646	3608
744.697	3532
744.749	3570
744.8	3536
744.851	3518
744.902	3540
744.954	3466
745.005	3518
745.056	3470
745.107	3508
745.159	3582
745.21	3512
745.261	3484
745.312	3512
745.363	3518
745.415	3538
745.466	3474
745.517	3468
745.568	3502
745.62	3474
745.671	3514
745.722	3422
745.773	3436
745.824	3422
745.876	3496
745.927	3450
745.978	3438
746.029	3502
746.081	3492
746.132	3472
746.183	3456
746.234	3512
746.285	3460
746.337	3430
746.388	3444
746.439	3414
746.49	3432
746.542	3468
746.593	3418
746.644	3408
746.695	3360
746.746	3398
746.798	3396
746.849	3384
746.9	3410
746.951	3358
747.003	3416
747.054	3342
747.105	3334
747.156	3346
747.207	3418
747.259	3360
747.31	3380
747.361	3350
747.412	3330
747.463	3410
747.515	3368
747.566	3282
747.617	3384
747.668	3376
747.719	3362
747.771	3344
747.822	3378
747.873	3380
747.924	3364
747.975	3382
748.027	3324
748.078	3350
748.129	3354
748.18	3248
748.231	3374
748.283	3364
748.334	3318
748.385	3422
748.436	3312
748.487	3328
748.539	3274
748.59	3266
748.641	3266
748.692	3280
748.743	3300
748.795	3258
748.846	3322
748.897	3330
748.948	3298
748.999	3222
749.05	3334
749.102	3240
749.153	3260
749.204	3216
749.255	3256
749.306	3274
749.358	3254
749.409	3310
749.46	3272
749.511	3296
749.562	3282
749.614	3300
749.665	3262
749.716	3252
749.767	3232
749.818	3256
749.869	3180
749.921	3226
749.972	3186
750.023	3272
750.074	3248
750.125	3240
750.177	3252
750.228	3242
750.279	3232
750.33	3250
750.381	3186
750.432	3148
750.484	3224
750.535	3240
750.586	3222
750.637	3260
750.688	3266
750.739	3202
750.791	3190
750.842	3148
750.893	3178
750.944	3138
750.995	3134
751.046	3136
751.098	3102
751.149	3138
751.2	3106
751.251	3190
751.302	3160
751.353	3110
751.404	3156
751.456	3160
751.507	3166
751.558	3088
751.609	3116
751.66	3152
751.711	3094
751.763	3100
751.814	3126
751.865	3082
751.916	3100
751.967	3080
752.018	3082
752.07	3070
752.121	3102
752.172	3066
752.223	3104
752.274	3056
752.325	3076
752.376	3116
752.428	3036
752.479	3026
752.53	3102
752.581	3088
752.632	3032
752.683	3108
752.734	3010
752.786	3048
752.837	3050
752.888	3046
752.939	3110
752.99	3040
753.041	3024
753.092	3004
753.144	3062
753.195	3004
753.246	3016
753.297	2998
753.348	2958
753.399	3008
753.45	3032
753.502	2966
753.553	2994
753.604	2956
753.655	2982
753.706	2996
753.757	3012
753.808	3008
753.859	3004
753.911	2996
753.962	2976
754.013	2994
754.064	2952
754.115	2940
754.166	2942
754.217	2972
754.269	2994
754.32	2962
754.371	2954
754.422	2936
754.473	2946
754.524	2884
754.575	2944
754.626	2946
754.678	3008
754.729	2914
754.78	2918
754.831	2908
754.882	2894
754.933	2920
754.984	2946
755.035	2888
755.086	2918
755.138	2852
755.189	2866
755.24	2896
755.291	2898
755.342	2826
755.393	2892
755.444	2840
755.495	2856
755.547	2860
755.598	2874
755.649	2864
755.7	2834
755.751	2850
755.802	2886
755.853	2838
755.904	2810
755.955	2860
756.006	2852
756.058	2850
756.109	2814
756.16	2804
756.211	2838
756.262	2834
756.313	2848
756.364	2800
756.415	2814
756.466	2892
756.518	2802
756.569	2780
756.62	2818
756.671	2822
756.722	2792
756.773	2812
756.824	2802
756.875	2760
756.926	2820
756.977	2806
757.029	2822
757.08	2782
757.131	2784
757.182	2700
757.233	2784
757.284	2798
757.335	2800
757.386	2800
757.437	2742
757.488	2800
757.539	2794
757.59	2790
757.642	2780
757.693	2716
757.744	2756
757.795	2706
757.846	2742
757.897	2752
757.948	2792
757.999	2794
758.05	2702
758.101	2732
758.152	2734
758.203	2728
758.255	2730
758.306	2694
758.357	2706
758.408	2750
758.459	2706
758.51	2769.61
758.561	2696.34
758.612	2694.58
758.663	2665.06
758.714	2674.71
758.765	2651.46
758.816	2696.79
758.867	2732.37
758.919	2700.42
758.97	2664.29
759.021	2688.16
759.072	2688.81
759.123	2639.8
759.174	2642.15
759.225	2696.82
759.276	2628.71
759.327	2641.48
759.378	2677.51
759.429	2674.74
759.48	2650.09
759.531	2630.03
759.582	2624.03
759.633	2616.43
759.685	2625.7
759.736	2630.63
759.787	2606.97
759.838	2600.04
759.889	2579.25
759.94	2619.59
759.991	2617.59
760.042	2592.3
760.093	2574.59
760.144	2591.94
760.195	2607.53
760.246	2569.15
760.297	2597.38
760.348	2595.74
760.399	2581.26
760.45	2572.77
760.501	2584.46
760.552	2519.34
760.603	2539.28
760.655	2561.5
760.706	2564.34
760.757	2549.72
760.808	2560.64
760.859	2517.52
760.91	2532.73
760.961	2534.26
761.012	2502.64
761.063	2534.19
761.114	2537.24
761.165	2532.47
761.216	2511.75
761.267	2508.61
761.318	2555.27
761.369	2522.1
761.42	2512.62
761.471	2515.86
761.522	2530.78
761.573	2502.17
761.624	2524.38
761.675	2495.72
761.726	2548.7
761.777	2506.07
761.828	2481.41
761.88	2474.11
761.931	2494.65
761.982	2480.74
762.033	2530.99
762.084	2482.49
762.135	2504.51
762.186	2486.29
762.237	2438.55
762.288	2473.25
762.339	2469.57
762.39	2485.99
762.441	2462.2
762.492	2445.53
762.543	2458.96
762.594	2465.28
762.645	2484.55
762.696	2482.99
762.747	2448.03
762.798	2400.59
762.849	2433.75
762.9	2438.11
762.951	2431.42
763.002	2456.37
763.053	2425.36
763.104	2409.2
763.155	2388.89
763.206	2406.16
763.257	2404.08
763.308	2396.73
763.359	2441.02
763.41	2374.54
763.461	2402.1
763.512	2398.15
763.563	2375.21
763.614	2356.6
763.665	2382.29
763.678	2392
763.729	2398
763.78	2396
763.832	2398
763.883	2364
763.934	2342
763.986	2360
764.037	2390
764.088	2308
764.139	2444
764.191	2338
764.242	2346
764.293	2360
764.345	2346
764.396	2350
764.447	2298
764.498	2328
764.55	2348
764.601	2314
764.652	2330
764.704	2286
764.755	2314
764.806	2366
764.857	2288
764.909	2314
764.96	2312
765.011	2314
765.062	2304
765.114	2320
765.165	2324
765.216	2310
765.268	2314
765.319	2290
765.37	2314
765.421	2242
765.473	2264
765.524	2306
765.575	2348
765.626	2288
765.678	2242
765.729	2266
765.78	2256
765.831	2260
765.883	2286
765.934	2250
765.985	2260
766.036	2206
766.088	2300
766.139	2302
766.19	2184
766.242	2246
766.293	2266
766.344	2234
766.395	2220
766.447	2232
766.498	2262
766.549	2242
766.6	2224
766.652	2234
766.703	2258
766.754	2234
766.805	2168
766.857	2234
766.908	2200
766.959	2228
767.01	2210
767.062	2228
767.113	2228
767.164	2210
767.215	2226
767.267	2210
767.318	2236
767.369	2174
767.42	2176
767.472	2186
767.523	2160
767.574	2186
767.625	2132
767.677	2192
767.728	2154
767.779	2214
767.83	2140
767.882	2158
767.933	2164
767.984	2140
768.035	2144
768.087	2150
768.138	2186
768.189	2098
768.24	2124
768.292	2080
768.343	2140
768.394	2146
768.445	2130
768.497	2132
768.548	2084
768.599	2124
768.65	2142
768.701	2148
768.753	2150
768.804	2094
768.855	2056
768.906	2096
768.958	2096
769.009	2082
769.06	2130
769.111	2040
769.163	2120
769.214	2070
769.265	2092
769.316	2074
769.367	2070
769.419	2026
769.47	2080
769.521	2072
769.572	2048
769.624	2046
769.675	2088
769.726	2078
769.777	2024
769.828	2066
769.88	2056
769.931	1988
769.982	2040
770.033	2040
770.085	2038
770.136	2072
770.187	2012
770.238	2010
770.289	2010
770.341	2032
770.392	2016
770.443	1986
770.494	2056
770.546	2022
770.597	2000
770.648	1994
770.699	2020
770.75	1994
770.802	2006
770.853	1980
770.904	1990
770.955	2006
771.006	1994
771.058	1952
771.109	1958
771.16	1972
771.211	1940
771.263	1962
771.314	1984
771.365	2008
771.416	1974
771.467	1956
771.519	1974
771.57	1986
771.621	1974
771.672	1954
771.723	1960
771.775	1980
771.826	1926
771.877	1946
771.928	1910
771.979	1918
772.031	1908
772.082	1942
772.133	1932
772.184	1866
772.235	1948
772.287	1902
772.338	1936
772.389	1880
772.44	1890
772.491	1902
772.543	1904
772.594	1924
772.645	1896
772.696	1918
772.747	1888
772.799	1878
772.85	1868
772.901	1918
772.952	1864
773.003	1880
773.055	1896
773.106	1882
773.157	1852
773.208	1872
773.259	1896
773.31	1844
773.362	1858
773.413	1870
773.464	1882
773.515	1862
773.566	1816
773.618	1860
773.669	1848
773.72	1882
773.771	1860
773.822	1850
773.873	1868
773.925	1838
773.976	1852
774.027	1862
774.078	1808
774.129	1784
774.18	1830
774.232	1812
774.283	1818
774.334	1810
774.385	1812
774.436	1794
774.488	1778
774.539	1844
774.59	1808
774.641	1806
774.692	1812
774.743	1806
774.795	1752
774.846	1790
774.897	1804
774.948	1784
774.999	1752
775.05	1758
775.102	1750
775.153	1748
775.204	1778
775.255	1782
775.306	1754
775.357	1728
775.409	1756
775.46	1742
775.511	1750
775.562	1772
775.613	1770
775.664	1740
775.716	1772
775.767	1734
775.818	1730
775.869	1754
775.92	1750
775.971	1696
776.023	1720
776.074	1782
776.125	1728
776.176	1740
776.227	1748
776.278	1714
776.329	1730
776.381	1754
776.432	1712
776.483	1718
776.534	1684
776.585	1720
776.636	1716
776.688	1726
776.739	1732
776.79	1730
776.841	1682
776.892	1710
776.943	1706
776.994	1670
777.046	1696
777.097	1660
777.148	1686
777.199	1656
777.25	1654
777.301	1680
777.352	1712
777.404	1664
777.455	1610
777.506	1668
777.557	1682
777.608	1660
777.659	1602
777.71	1624
777.762	1690
777.813	1648
777.864	1624
777.915	1648
777.966	1682
778.017	1628
778.068	1628
778.12	1630
778.171	1662
778.222	1658
778.273	1642
778.324	1650
778.375	1588
778.426	1602
778.477	1618
778.529	1622
778.58	1580
778.631	1526
778.682	1588
778.733	1594
778.784	1592
778.835	1580
778.886	1568
778.938	1594
778.989	1636
779.04	1598
779.091	1560
779.142	1602
779.193	1578
779.244	1562
779.295	1580
779.347	1598
779.398	1564
779.449	1576
779.5	1596
779.551	1586
779.602	1572
779.653	1532
779.704	1588
779.755	1558
779.807	1594
779.858	1558
779.909	1608
779.96	1534
780.011	1542
780.062	1548
780.113	1566
780.164	1562
780.216	1512
780.267	1504
780.318	1532
780.369	1532
780.42	1514
780.471	1498
780.522	1546
780.573	1528
780.624	1522
780.675	1516
780.727	1540
780.778	1498
780.829	1518
780.88	1512
780.931	1496
780.982	1486
781.033	1528
781.084	1504
781.135	1472
781.187	1504
781.238	1458
781.289	1470
781.34	1490
781.391	1474
781.442	1484
781.493	1510
781.544	1496
781.595	1496
781.646	1492
781.698	1462
781.749	1458
781.8	1436
781.851	1508
781.902	1450
781.953	1424
782.004	1478
782.055	1466
782.106	1462
782.157	1492
782.208	1484
782.26	1434
782.311	1440
782.362	1458
782.413	1466
782.464	1442
782.515	1432
782.566	1424
782.617	1420
782.668	1442
782.719	1428
782.77	1428
782.821	1438
782.872	1410
782.924	1424
782.975	1456
783.026	1436
783.077	1422
783.128	1400
783.179	1426
783.23	1414
783.281	1394
783.332	1406
783.383	1432
783.434	1376
783.485	1416
783.536	1442
783.588	1418
783.639	1428
783.69	1430
783.741	1374
783.792	1400
783.843	1400
783.894	1354
783.945	1368
783.996	1328
784.047	1398
784.098	1366
784.149	1366
784.2	1392
784.252	1404
784.303	1384
784.354	1356
784.405	1366
784.456	1366
784.507	1366
784.558	1370
784.609	1336
784.66	1336
784.711	1358
784.762	1332
784.813	1316
784.864	1334
784.915	1358
784.966	1340
785.017	1334
785.068	1374
785.12	1344
785.171	1328
785.222	1322
785.273	1304
785.324	1328
785.375	1294
785.426	1360
785.477	1342
785.528	1370
785.579	1298
785.63	1350
785.681	1348
785.732	1286
785.783	1306
785.834	1352
785.885	1320
785.936	1324
785.987	1282
786.038	1270
786.089	1310
786.141	1308
786.192	1314
786.243	1322
786.294	1294
786.345	1308
786.396	1252
786.447	1274
786.498	1304
786.549	1312
786.6	1302
786.651	1296
786.702	1296
786.753	1274
786.804	1298
786.855	1252
786.906	1252
786.957	1268
787.008	1260
787.059	1252
787.11	1282
787.161	1268
787.212	1288
787.263	1298
787.314	1294
787.365	1256
787.416	1218
787.467	1246
787.518	1236
787.57	1210
787.621	1254
787.672	1246
787.723	1242
787.774	1220
787.825	1232
787.876	1256
787.927	1238
787.978	1190
788.029	1210
788.08	1214
788.131	1256
788.182	1214
788.233	1218
788.284	1196
788.335	1190
788.386	1220
788.437	1202
788.488	1224
788.539	1194
788.59	1204
788.641	1176
788.692	1172
788.743	1232
788.794	1180
788.845	1178
788.896	1204
788.947	1158
788.998	1180
789.049	1170
789.1	1186
789.151	1174
789.202	1176
789.253	1160
789.304	1158
789.355	1174
789.406	1206
789.457	1160
789.508	1200
789.559	1160
789.61	1182
789.661	1184
789.712	1178
789.763	1144
789.814	1130
789.865	1170
789.916	1178
789.967	1172
790.018	1172
790.069	1142
790.12	1148
790.171	1158
790.222	1160
790.273	1186
790.324	1132
790.375	1188
790.426	1162
790.477	1132
790.528	1150
790.579	1166
790.63	1138
790.681	1148
790.732	1170
790.783	1164
790.834	1160
790.885	1128
790.936	1134
790.987	1150
791.038	1132
791.089	1120
791.14	1158
791.191	1104
791.242	1092
791.293	1118
791.344	1102
791.395	1140
791.446	1110
791.497	1080
791.548	1098
791.599	1098
791.65	1112
791.701	1110
791.752	1112
791.803	1104
791.854	1094
791.905	1094
791.956	1132
792.007	1098
792.058	1128
792.109	1104
792.16	1078
792.211	1096
792.262	1056
792.313	1102
792.363	1104
792.414	1066
792.465	1082
792.516	1070
792.567	1058
792.618	1082
792.669	1088
792.72	1084
792.771	1040
792.822	1080
792.873	1040
792.924	1068
792.975	1078
793.026	1056
793.077	1054
793.128	1066
793.179	1068
793.23	1020
793.281	1072
793.332	1052
793.383	1076
793.434	1038
793.485	1046
793.536	1060
793.587	1066
793.638	1070
793.689	1042
793.74	1026
793.79	1062
793.841	998
793.892	1020
793.943	1006
793.994	1030
794.045	1034
794.096	1042
794.147	1058
794.198	1026
794.249	1018
794.3	1020
794.351	984
794.402	1010
794.453	1014
794.504	1030
794.555	1010
794.606	996
794.657	998
794.708	1006
794.758	1020
794.809	1028
794.86	1004
794.911	1034
794.962	1012
795.013	966
795.064	988
795.115	994
795.166	1008
795.217	1006
795.268	1024
795.319	974
795.37	976
795.421	992
795.472	978
795.523	994
795.573	944
795.624	956
795.675	980
795.726	1008
795.777	980
795.828	962
795.879	974
795.93	976
795.981	962
796.032	980
796.083	968
796.134	962
796.185	980
796.236	994
796.286	962
796.337	948
796.388	948
796.439	928
796.49	960
796.541	936
796.592	970
796.643	976
796.694	970
796.745	958
796.796	930
796.847	928
796.897	944
796.948	928
796.999	956
797.05	928
797.101	932
797.152	912
797.203	944
797.254	918
797.305	916
797.356	918
797.407	934
797.458	908
797.508	922
797.559	930
797.61	928
797.661	914
797.712	906
797.763	930
797.814	930
797.865	912
797.916	910
797.967	960
798.018	906
798.068	898
798.119	922
798.17	890
798.221	904
798.272	896
798.323	890
798.374	902
798.425	900
798.476	894
798.526	914
798.577	898
798.628	882
798.679	912
798.73	876
798.781	888
798.832	878
798.883	900
798.934	884
798.984	874
799.035	876
799.086	866
799.137	882
799.188	878
799.239	886
799.29	850
799.341	894
799.392	862
799.443	916
799.493	858
799.544	878
799.595	870
799.646	844
799.697	862
799.748	866
799.799	848
799.85	858
799.9	842
799.951	878
800.002	858
800.053	858
800.104	890
800.155	856
800.206	864
800.257	872
800.307	896
800.358	884
800.409	830
800.46	856
800.511	830
800.562	848
800.613	838
800.664	854
800.714	796
800.765	810
800.816	826
800.867	852
800.918	836
800.969	830
801.02	838
801.07	838
801.121	844
801.172	830
801.223	814
801.274	828
801.325	816
801.376	824
801.427	834
801.477	828
801.528	790
801.579	802
801.63	814
801.681	814
801.732	802
801.783	800
801.833	790
801.884	766
801.935	832
801.986	830
802.037	838
802.088	784
802.139	806
802.189	792
802.24	792
802.291	788
802.342	776
802.393	804
802.444	800
802.495	786
802.545	792
802.596	796
802.647	784
802.698	798
802.749	790
802.8	806
802.85	770
802.901	778
802.952	770
803.003	808
803.054	792
803.105	794
803.155	782
803.206	790
803.257	780
803.308	768
803.359	796
803.41	778
803.46	794
803.511	798
803.562	772
803.613	790
803.664	778
803.715	748
803.765	804
803.816	766
803.867	772
803.918	756
803.969	778
804.02	774
804.07	774
804.121	762
804.172	766
804.223	782
804.274	744
804.325	768
804.375	742
804.426	724
804.477	756
804.528	738
804.579	776
804.63	756
804.68	728
804.731	750
804.782	766
804.833	762
804.884	756
804.934	750
804.985	754
805.036	746
805.087	752
805.138	732
805.188	742
805.239	728
805.29	718
805.341	744
805.392	758
805.443	734
805.493	708.083
805.544	755.417
805.595	715.844
805.646	747.66
805.697	724.363
805.747	746.304
805.798	750.549
805.849	752.206
805.9	723.951
805.951	708.491
806.001	719.878
806.052	728.822
806.103	720.016
806.154	713.499
806.205	720.588
806.255	730.24
806.306	712.816
806.357	742.329
806.408	716.165
806.459	716.391
806.509	709.802
806.56	712.959
806.611	712.147
806.662	718.787
806.713	694.949
806.763	698.817
806.814	693.803
806.865	701.395
806.916	689.368
806.967	706.542
807.017	700.81
807.068	688.478
807.119	698.162
807.17	726.448
807.22	692.494
807.271	698.353
807.322	709.407
807.373	691.542
807.424	714.456
807.474	693.781
807.525	728.1
807.576	692.81
807.627	684.013
807.678	690.262
807.728	696.32
807.779	684.124
807.83	684.378
807.881	679.754
807.931	679.357
807.982	665.576
808.033	686.948
808.084	681.511
808.135	668.4
808.185	678.167
808.236	679.817
808.287	691.743
808.338	668.512
808.388	671.129
808.439	673.691
808.49	679.892
808.541	678.153
808.591	670.332
808.642	674.42
808.693	669.988
808.744	659.908
808.795	677.562
808.845	657.361
808.896	665.21
808.947	662.794
808.998	673.588
809.048	648.371
809.099	674.86
809.15	652.041
809.201	638.845
809.251	673.096
809.302	666.31
809.353	672.462
809.404	656.772
809.454	653.146
809.505	652.251
809.556	647.588
809.607	644.087
809.658	656.141
809.708	663.063
809.759	650.596
809.81	636.794
809.861	633.68
809.911	639.6
809.962	647.107
810.013	642.956
810.064	630.822
810.114	664.043
810.165	662.792
810.216	637.279
810.267	644.589
810.317	645.147
810.368	650.004
810.419	653.689
810.469	625.453
810.52	639.664
810.571	645.966
810.622	617.531
810.627	614
810.678	622
810.729	632
810.78	610
810.831	606
810.882	610
810.933	624
810.984	636
811.035	626
811.086	606
811.137	630
811.188	618
811.239	628
811.29	578
811.341	598
811.392	608
811.443	626
811.494	588
811.545	614
811.596	594
811.648	608
811.699	618
811.75	614
811.801	606
811.852	630
811.903	600
811.954	606
812.005	598
812.056	620
812.107	612
812.158	608
812.209	592
812.26	606
812.311	604
812.362	620
812.413	598
812.464	592
812.515	628
812.566	602
812.617	606
812.668	600
812.719	596
812.77	602
812.821	594
812.872	602
812.923	582
812.974	582
813.025	610
813.076	578
813.127	588
813.178	606
813.229	598
813.28	592
813.331	602
813.382	596
813.433	580
813.484	622
813.535	558
813.586	574
813.637	554
813.688	576
813.739	574
813.79	580
813.841	598
813.892	568
813.943	590
813.994	584
814.045	572
814.096	564
814.147	558
814.198	548
814.249	542
814.3	560
814.351	588
814.402	536
814.453	554
814.504	540
814.555	558
814.606	558
814.657	558
814.708	576
814.759	542
814.81	576
814.861	560
814.912	554
814.963	538
815.014	538
815.065	552
815.116	570
815.167	570
815.217	564
815.268	550
815.319	548
815.37	544
815.421	562
815.472	546
815.523	552
815.574	500
815.625	552
815.676	550
815.727	522
815.778	530
815.829	554
815.88	544
815.931	544
815.982	538
816.033	524
816.084	540
816.135	548
816.186	510
816.237	524
816.288	538
816.339	534
816.39	532
816.441	550
816.492	548
816.543	580
816.594	530
816.645	540
816.696	512
816.747	518
816.798	496
816.849	518
816.9	510
816.951	516
817.001	534
817.052	518
817.103	524
817.154	516
817.205	542
817.256	514
817.307	498
817.358	540
817.409	524
817.46	538
817.511	504
817.562	528
817.613	554
817.664	538
817.715	512
817.766	522
817.817	502
817.868	508
817.919	544
817.97	522
818.021	498
818.071	524
818.122	508
818.173	512
818.224	510
818.275	518
818.326	518
818.377	532
818.428	504
818.479	486
818.53	502
818.581	510
818.632	464
818.683	500
818.734	472
818.785	488
818.836	500
818.887	500
818.938	512
818.988	502
819.039	488
819.09	500
819.141	498
819.192	494
819.243	486
819.294	506
819.345	476
819.396	498
819.447	502
819.498	462
819.549	494
819.6	496
819.651	494
819.702	490
819.753	496
819.803	514
819.854	488
819.905	498
819.956	500
820.007	478
820.058	494
820.109	478
820.16	482
820.211	480
820.262	480
820.313	480
820.364	492
820.415	482
820.465	464
820.516	496
820.567	492
820.618	488
820.669	470
820.72	454
820.771	462
820.822	484
820.873	490
820.924	460
820.975	472
821.026	472
821.076	472
821.127	482
821.178	458
821.229	480
821.28	480
821.331	454
821.382	482
821.433	452
821.484	462
821.535	458
821.586	452
821.637	456
821.687	454
821.738	450
821.789	456
821.84	476
821.891	448
821.942	430
821.993	466
822.044	462
822.095	468
822.146	460
822.196	476
822.247	454
822.298	456
822.349	468
822.4	476
822.451	470
822.502	432
822.553	462
822.604	462
822.655	454
822.706	468
822.756	432
822.807	456
822.858	462
822.909	450
822.96	444
823.011	442
823.062	432
823.113	418
823.164	428
823.214	446
823.265	452
823.316	454
823.367	450
823.418	436
823.469	432
823.52	434
823.571	440
823.622	446
823.672	454
823.723	436
823.774	440
823.825	428
823.876	436
823.927	430
823.978	428
824.029	436
824.08	430
824.13	430
824.181	440
824.232	444
824.283	442
824.334	438
824.385	434
824.436	442
824.487	420
824.537	434
824.588	424
824.639	448
824.69	422
824.741	434
824.792	428
824.843	432
824.893	424
824.944	410
824.995	414
825.046	434
825.097	420
825.148	434
825.199	426
825.25	420
825.3	418
825.351	412
825.402	412
825.453	420
825.504	410
825.555	410
825.606	404
825.657	438
825.707	412
825.758	420
825.809	402
825.86	416
825.911	400
825.962	398
826.013	388
826.063	394
826.114	410
826.165	398
826.216	408
826.267	418
826.318	404
826.369	408
826.419	384
826.47	418
826.521	400
826.572	402
826.623	406
826.674	420
826.725	374
826.775	422
826.826	398
826.877	420
826.928	404
826.979	404
827.03	392
827.08	416
827.131	380
827.182	390
827.233	402
827.284	406
827.335	396
827.386	396
827.436	372
827.487	396
827.538	396
827.589	392
827.64	386
827.691	412
827.741	398
827.792	372
827.843	414
827.894	406
827.945	390
827.996	388
828.046	404
828.097	394
828.148	384
828.199	400
828.25	388
828.301	392
828.351	372
828.402	400
828.453	396
828.504	404
828.555	384
828.606	398
828.656	404
828.707	404
828.758	392
828.809	392
828.86	384
828.911	390
828.961	404
829.012	392
829.063	378
829.114	366
829.165	386
829.216	376
829.266	370
829.317	382
829.368	366
829.419	392
829.47	370
829.52	376
829.571	360
829.622	388
829.673	372
829.724	366
829.774	376
829.825	376
829.876	378
829.927	382
829.978	374
830.029	370
830.079	358
830.13	368
830.181	382
830.232	376
830.283	344
830.333	370
830.384	362
830.435	360
830.486	354
830.537	370
830.587	346
830.638	364
830.689	366
830.74	352
830.791	352
830.841	372
830.892	350
830.943	362
830.994	370
831.045	354
831.095	356
831.146	350
831.197	364
831.248	366
831.299	342
831.349	362
831.4	370
831.451	358
831.502	338
831.553	358
831.603	356
831.654	352
831.705	362
831.756	330
831.807	350
831.857	344
831.908	348
831.959	362
832.01	354
832.061	364
832.111	360
832.162	336
832.213	354
832.264	354
832.315	366
832.365	368
832.416	338
832.467	360
832.518	352
832.568	354
832.619	334
832.67	346
832.721	342
832.772	346
832.822	352
832.873	344
832.924	344
832.975	360
833.025	358
833.076	350
833.127	338
833.178	358
833.229	338
833.279	338
833.33	338
833.381	338
833.432	354
833.482	342
833.533	340
833.584	342
833.635	346
833.685	332
833.736	346
833.787	354
833.838	336
833.889	336
833.939	338
833.99	328
834.041	344
834.092	340
834.142	314
834.193	332
834.244	336
834.295	348
834.345	328
834.396	330
834.447	336
834.498	356
834.548	326
834.599	350
834.65	328
834.701	324
834.751	322
834.802	326
834.853	326
834.904	334
834.954	316
835.005	342
835.056	342
835.107	340
835.157	328
835.208	338
835.259	306
835.31	324
835.36	326
835.411	344
835.462	324
835.513	318
835.563	326
835.614	340
835.665	318
835.716	334
835.766	326
835.817	322
835.868	320
835.919	334
835.969	326
836.02	326
836.071	334
836.122	320
836.172	302
836.223	324
836.274	314
836.325	328
836.375	300
836.426	328
836.477	336
836.528	320
836.578	310
836.629	312
836.68	332
836.73	298
836.781	316
836.832	308
836.883	308
836.933	316
836.984	314
837.035	308
837.086	314
837.136	310
837.187	296
837.238	304
837.288	314
837.339	300
837.39	310
837.441	306
837.491	302
837.542	324
837.593	306
837.643	316
837.694	310
837.745	318
837.796	306
837.846	312
837.897	304
837.948	296
837.999	282
838.049	292
838.1	306
838.151	318
838.201	310
838.252	306
838.303	306
838.354	308
838.404	286
838.455	308
838.506	302
838.556	314
838.607	312
838.658	322
838.708	312
838.759	292
838.81	284
838.861	304
838.911	312
838.962	300
839.013	300
839.063	308
839.114	304
839.165	292
839.216	308
839.266	298
839.317	292
839.368	306
839.418	276
839.469	310
839.52	292
839.57	306
839.621	286
839.672	290
839.722	292
839.773	284
839.824	280
839.875	296
839.925	298
839.976	278
840.027	292
840.077	290
840.128	300
840.179	290
840.229	292
840.28	292
840.331	288
840.381	292
840.432	284
840.483	292
840.534	282
840.584	292
840.635	292
840.686	296
840.736	300
840.787	286
840.838	268
840.888	294
840.939	268
840.99	296
841.04	272
841.091	272
841.142	290
841.192	286
841.243	270
841.294	292
841.344	282
841.395	272
841.446	268
841.496	290
841.547	308
841.598	278
841.648	290
841.699	288
841.75	294
841.8	274
841.851	284
841.902	288
841.952	284
842.003	280
842.054	284
842.104	266
842.155	264
842.206	278
842.256	264
842.307	278
842.358	282
842.408	274
842.459	268
842.51	262
842.56	276
842.611	280
842.662	276
842.712	282
842.763	288
842.814	290
842.864	278
842.915	290
842.966	284
843.016	276
843.067	266
843.118	268
843.168	284
843.219	276
843.269	254
843.32	278
843.371	290
843.421	278
843.472	270
843.523	278
843.573	264
843.624	288
843.675	270
843.725	274
843.776	268
843.827	268
843.877	274
843.928	284
843.979	252
844.029	266
844.08	258
844.13	272
844.181	266
844.232	260
844.282	270
844.333	262
844.384	278
844.434	274
844.485	264
844.536	276
844.586	268
844.637	258
844.687	276
844.738	258
844.789	258
844.839	256
844.89	246
844.941	270
844.991	262
845.042	274
845.092	268
845.143	256
845.194	244
845.244	270
845.295	248
845.346	266
845.396	266
845.447	258
845.497	254
845.548	248
845.599	264
845.649	270
845.7	250
845.75	240
845.801	264
845.852	270
845.902	248
845.953	270
846.004	252
846.054	260
846.105	260
846.155	274
846.206	256
846.257	238
846.307	254
846.358	254
846.409	254
846.459	252
846.51	240
846.56	246
846.611	252
846.661	258
846.712	248
846.763	236
846.813	246
846.864	256
846.915	246
846.965	244
847.016	248
847.066	258
847.117	252
847.168	244
847.218	260
847.269	266
847.319	248
847.37	274
847.421	260
847.471	256
847.522	218
847.572	242
847.623	250
847.674	226
847.724	240
847.775	250
847.825	224
847.876	244
847.926	234
847.977	244
848.028	246
848.078	248
848.129	228
848.179	256
848.23	244
848.281	244
848.331	230
848.382	238
848.432	226
848.483	246
848.534	232
848.584	236
848.635	260
848.685	234
848.736	222
848.786	248
848.837	242
848.888	256
848.938	246
848.989	246
849.039	252
849.09	220
849.14	228
849.191	240
849.242	230
849.292	246
849.343	224
849.393	240
849.444	238
849.494	250
849.545	228
849.596	258
849.646	240
849.697	236
849.747	216
849.798	234
849.848	236
849.899	226
849.95	216
850	234
850.051	238
850.101	242
850.152	218
850.202	228
850.253	234
850.303	230
850.354	230
850.405	240
850.455	228
850.506	220
850.556	236
850.607	230
850.657	224
850.708	218
850.758	222
850.809	234
850.86	230
850.91	236
850.961	226
851.011	238
851.062	232
851.112	224
851.163	216
851.213	230
851.264	222
851.314	240
851.365	210
851.416	226
851.466	200
851.517	228
851.567	220
851.618	222
851.668	242
851.719	208
851.769	228
851.82	226
851.87	206
851.921	218
851.971	222
852.022	222
852.073	214
852.123	220
852.174	212
852.224	228
852.275	224
852.325	229.969
852.376	212.063
852.426	223.996
852.477	223.722
852.527	213.315
852.578	199.212
852.628	218.649
852.679	208.013
852.729	214.65
852.78	211.097
852.831	225.375
852.881	225.323
852.932	225.867
852.982	192.442
853.033	226.151
853.083	210.444
853.134	231.225
853.184	210.496
853.235	216.318
853.285	214.756
853.336	214.686
853.386	217.7
853.437	215.705
853.487	225.701
853.538	212.57
853.588	209.122
853.639	212.777
853.689	209.65
853.74	212.508
853.79	216.971
853.841	213.83
853.891	217.524
853.942	211.874
853.992	204.354
854.043	219.678
854.093	206.928
854.144	214.927
854.194	217.445
854.245	209.108
854.295	203.61
854.346	217.394
854.396	201.623
854.447	211.007
854.497	214.751
854.548	214.394
854.598	212.028
854.649	207.633
854.699	203.9
854.75	197.824
854.8	206.315
854.851	204.688
854.901	199.743
854.952	200.227
855.002	201.382
855.053	208.489
855.103	205.924
855.154	211.174
855.204	214.773
855.255	208.06
855.305	201.65
855.356	200.747
855.406	205
855.457	207.655
855.507	205.81
855.558	208.147
855.608	202.41
855.659	198.64
855.709	193.677
855.76	200.836
855.81	202.988
855.861	203.696
855.911	195.968
855.962	204.681
856.012	204.502
856.063	207.988
856.113	202.417
856.164	204.47
856.214	199.436
856.265	198.901
856.315	200.311
856.366	200.34
856.416	197.26
856.467	201.472
856.517	202.807
856.568	206.498
856.618	192.928
856.668	191.829
856.719	198.29
856.769	194.23
856.82	197.628
856.87	200.021
856.921	195.804
856.971	192.173
857.022	196.878
857.072	201.147
857.123	198.659
857.173	196.693
857.224	195.971
857.274	182.753
857.325	174.798
857.352	178
857.403	208
857.453	196
857.504	202
857.555	190
857.606	198
857.656	196
857.707	182
857.758	196
857.809	192
857.859	184
857.91	194
857.961	196
858.012	200
858.063	196
858.113	188
858.164	190
858.215	188
858.266	192
858.316	174
858.367	184
858.418	186
858.469	198
858.519	196
858.57	182
858.621	194
858.672	186
858.722	188
858.773	184
858.824	194
858.875	190
858.925	200
858.976	186
859.027	194
859.078	190
859.128	190
859.179	188
859.23	194
859.281	190
859.331	194
859.382	174
859.433	188
859.483	190
859.534	184
859.585	182
859.636	192
859.686	182
859.737	178
859.788	176
859.839	196
859.889	178
859.94	194
859.991	180
860.042	188
860.092	186
860.143	184
860.194	170
860.245	184
860.295	170
860.346	174
860.397	174
860.447	180
860.498	186
860.549	196
860.6	178
860.65	188
860.701	178
860.752	184
860.802	190
860.853	174
860.904	182
860.955	174
861.005	174
861.056	188
861.107	170
861.158	174
861.208	174
861.259	186
861.31	184
861.36	178
861.411	166
861.462	186
861.513	184
861.563	184
861.614	176
861.665	186
861.715	184
861.766	190
861.817	180
861.868	184
861.918	188
861.969	182
862.02	168
862.07	170
862.121	168
862.172	180
862.223	174
862.273	176
862.324	184
862.375	176
862.425	172
862.476	178
862.527	176
862.577	182
862.628	172
862.679	178
862.73	142
862.78	164
862.831	162
862.882	182
862.932	178
862.983	184
863.034	162
863.084	176
863.135	182
863.186	176
863.237	178
863.287	184
863.338	164
863.389	166
863.439	160
863.49	186
863.541	172
863.591	168
863.642	158
863.693	172
863.744	176
863.794	168
863.845	166
863.896	168
863.946	172
863.997	180
864.048	152
864.098	170
864.149	162
864.2	188
864.25	168
864.301	190
864.352	178
864.402	170
864.453	152
864.504	178
864.555	164
864.605	174
864.656	164
864.707	172
864.757	172
864.808	164
864.859	166
864.909	162
864.96	166
865.011	166
865.061	166
865.112	170
865.163	172
865.213	166
865.264	162
865.315	176
865.365	154
865.416	160
865.467	148
865.517	172
865.568	174
865.619	164
865.669	164
865.72	172
865.771	162
865.821	172
865.872	156
865.923	170
865.973	160
866.024	160
866.075	164
866.125	170
866.176	172
866.227	176
866.277	152
866.328	168
866.379	166
866.429	164
866.48	178
866.531	174
866.581	154
866.632	158
866.683	156
866.733	166
866.784	168
866.835	156
866.885	168
866.936	164
866.987	160
867.037	162
867.088	158
867.138	162
867.189	176
867.24	164
867.29	160
867.341	166
867.392	172
867.442	156
867.493	162
867.544	152
867.594	162
867.645	170
867.696	152
867.746	162
867.797	164
867.848	168
867.898	152
867.949	162
867.999	140
868.05	156
868.101	142
868.151	150
868.202	166
868.253	158
868.303	154
868.354	152
868.405	168
868.455	158
868.506	152
868.556	166
868.607	164
868.658	158
868.708	144
868.759	160
868.81	160
868.86	160
868.911	146
868.961	164
869.012	164
869.063	174
869.113	146
869.164	170
869.215	166
869.265	160
869.316	142
869.367	156
869.417	156
869.468	168
869.518	154
869.569	142
869.62	170
869.67	160
869.721	148
869.771	154
869.822	172
869.873	152
869.923	146
869.974	154
870.025	160
870.075	156
870.126	156
870.176	156
870.227	158
870.278	158
870.328	158
870.379	148
870.43	156
870.48	156
870.531	148
870.581	132
870.632	150
870.683	158
870.733	146
870.784	152
870.834	140
870.885	148
870.936	142
870.986	164
871.037	146
871.087	150
871.138	154
871.189	138
871.239	148
871.29	140
871.34	148
871.391	142
871.442	152
871.492	142
871.543	136
871.593	162
871.644	150
871.695	160
871.745	146
871.796	152
871.846	160
871.897	160
871.948	160
871.998	148
872.049	144
872.099	154
872.15	132
872.201	142
872.251	158
872.302	148
872.352	132
872.403	140
872.453	146
872.504	136
872.555	130
872.605	154
872.656	146
872.706	146
872.757	134
872.808	140
872.858	158
872.909	152
872.959	146
873.01	154
873.06	128
873.111	144
873.162	128
873.212	124
873.263	142
873.313	156
873.364	130
873.415	132
873.465	144
873.516	138
873.566	140
873.617	134
873.667	136
873.718	138
873.769	132
873.819	138
873.87	144
873.92	148
873.971	132
874.021	148
874.072	144
874.123	142
874.173	142
874.224	138
874.274	146
874.325	128
874.375	134
874.426	142
874.477	144
874.527	134
874.578	132
874.628	144
874.679	142
874.729	140
874.78	126
874.83	134
874.881	146
874.932	136
874.982	122
875.033	136
875.083	142
875.134	140
875.184	138
875.235	130
875.285	126
875.336	140
875.387	134
875.437	132
875.488	132
875.538	148
875.589	124
875.639	140
875.69	138
875.74	140
875.791	140
875.841	122
875.892	140
875.943	138
875.993	128
876.044	148
876.094	134
876.145	132
876.195	126
876.246	140
876.296	138
876.347	148
876.397	140
876.448	132
876.499	136
876.549	132
876.6	134
876.65	146
876.701	136
876.751	128
876.802	136
876.852	126
876.903	126
876.953	136
877.004	112
877.054	118
877.105	140
877.155	130
877.206	120
877.257	132
877.307	134
877.358	136
877.408	128
877.459	126
877.509	134
877.56	138
877.61	130
877.661	136
877.711	136
877.762	118
877.812	124
877.863	120
877.913	136
877.964	118
878.014	122
878.065	130
878.115	126
878.166	128
878.216	118
878.267	116
878.318	130
878.368	132
878.419	130
878.469	126
878.52	128
878.57	120
878.621	120
878.671	114
878.722	124
878.772	114
878.823	132
878.873	124
878.924	126
878.974	136
879.025	130
879.075	122
879.126	140
879.176	112
879.227	128
879.277	126
879.328	132
879.378	126
879.429	116
879.479	122
879.53	126
879.58	126
879.631	128
879.681	128
879.732	130
879.782	128
879.833	130
879.883	112
879.934	126
879.984	136
880.035	114
880.085	118
880.136	126
880.186	120
880.237	128
880.287	130
880.338	122
880.388	112
880.439	122
880.489	120
880.54	136
880.59	126
880.641	120
880.691	126
880.742	124
880.792	110
880.842	128
880.893	118
880.943	126
880.994	136
881.044	118
881.095	128
881.145	126
881.196	104
881.246	116
881.297	114
881.347	122
881.398	124
881.448	116
881.499	124
881.549	118
881.6	112
881.65	126
881.701	108
881.751	114
881.802	112
881.852	120
881.902	110
881.953	122
882.003	114
882.054	118
882.104	106
882.155	120
882.205	124
882.256	124
882.306	110
882.357	114
882.407	130
882.458	124
882.508	110
882.559	120
882.609	114
882.659	120
882.71	120
882.76	122
882.811	114
882.861	112
882.912	102
882.962	118
883.013	116
883.063	114
883.114	114
883.164	126
883.214	112
883.265	118
883.315	114
883.366	128
883.416	114
883.467	108
883.517	106
883.568	124
883.618	120
883.669	114
883.719	106
883.769	112
883.82	108
883.87	128
883.921	114
883.971	110
884.022	108
884.072	122
884.123	116
884.173	114
884.223	110
884.274	102
884.324	118
884.375	112
884.425	120
884.476	108
884.526	120
884.577	122
884.627	118
884.677	106
884.728	104
884.778	114
884.829	114
884.879	118
884.93	114
884.98	132
885.03	104
885.081	112
885.131	106
885.182	110
885.232	108
885.283	112
885.333	120
885.383	114
885.434	120
885.484	100
885.535	108
885.585	110
885.635	106
885.686	104
885.736	100
885.787	100
885.837	112
885.888	102
885.938	100
885.988	120
886.039	112
886.089	112
886.14	108
886.19	112
886.241	106
886.291	114
886.341	112
886.392	112
886.442	112
886.493	112
886.543	106
886.593	110
886.644	110
886.694	96
886.745	96
886.795	110
886.845	100
886.896	108
886.946	106
886.997	108
887.047	102
887.097	100
887.148	110
887.198	110
887.249	108
887.299	114
887.349	98
887.4	100
887.45	110
887.501	112
887.551	108
887.602	106
887.652	106
887.702	102
887.753	108
887.803	104
887.853	106
887.904	112
887.954	110
888.005	88
888.055	106
888.105	96
888.156	102
888.206	94
888.257	106
888.307	98
888.357	98
888.408	108
888.458	110
888.509	106
888.559	110
888.609	106
888.66	106
888.71	92
888.76	102
888.811	108
888.861	110
888.912	96
888.962	112
889.012	114
889.063	92
889.113	108
889.163	96
889.214	100
889.264	102
889.315	102
889.365	96
889.415	108
889.466	106
889.516	94
889.566	106
889.617	100
889.667	88
889.718	102
889.768	92
889.818	108
889.869	98
889.919	102
889.969	100
890.02	106
890.07	106
890.12	90
890.171	92
890.221	104
890.272	102
890.322	90
890.372	98
890.423	104
890.473	98
890.523	98
890.574	96
890.624	94
890.674	106
890.725	88
890.775	96
890.826	100
890.876	98
890.926	88
890.977	94
891.027	116
891.077	108
891.128	90
891.178	84
891.228	102
891.279	100
891.329	98
891.379	96
891.43	96
891.48	92
891.53	86
891.581	84
891.631	82
891.681	98
891.732	90
891.782	96
891.832	100
891.883	100
891.933	90
891.983	86
892.034	100
892.084	94
892.134	92
892.185	88
892.235	98
892.286	100
892.336	96
892.386	94
892.437	92
892.487	90
892.537	94
892.587	90
892.638	100
892.688	96
892.738	88
892.789	90
892.839	94
892.889	102
892.94	90
892.99	88
893.04	102
893.091	96
893.141	92
893.191	80
893.242	100
893.292	100
893.342	90
893.393	86
893.443	96
893.493	86
893.544	86
893.594	84
893.644	94
893.695	104
893.745	94
893.795	84
893.846	100
893.896	90
893.946	86
893.996	90
894.047	94
894.097	92
894.147	86
894.198	84
894.248	102
894.298	94
894.349	90
894.399	90
894.449	98
894.5	94
894.55	94
894.6	86
894.65	100
894.701	84
894.751	92
894.801	70
894.852	92
894.902	90
894.952	92
895.003	86
895.053	82
895.103	86
895.153	84
895.204	82
895.254	92
895.304	88
895.355	90
895.405	74
895.455	94
895.505	94
895.556	86
895.606	78
895.656	102
895.707	82
895.757	88
895.807	76
895.858	90
895.908	88
895.958	96
896.008	78
896.059	82
896.109	94
896.159	86
896.21	84
896.26	80
896.31	82
896.36	76
896.411	78
896.461	88
896.511	90
896.561	92
896.612	74
896.662	92
896.712	90
896.763	82
896.813	76
896.863	90
896.913	90
896.964	82
897.014	78
897.064	90
897.115	86
897.165	76
897.215	78
897.265	84
897.316	90
897.366	86
897.416	78
897.466	82
897.517	86
897.567	82
897.617	76
897.667	82
897.718	82
897.768	78
897.818	82
897.868	78
897.919	100
897.969	80
898.019	78
898.069	94
898.12	84
898.17	88
898.22	78
898.27	82
898.321	78
898.371	78
898.421	76
898.471	78
898.522	88
898.572	88
898.622	76
898.672	90
898.723	72
898.773	86
898.823	78
898.873	82
898.924	84
898.974	78
899.024	78
899.074	86
899.125	80
899.175	74
899.225	76
899.275	78
899.326	82
899.376	90
899.426	62
899.476	82
899.527	86
899.577	78
899.627	58
899.677	84
899.728	78
899.778	84
899.828	74
899.878	82
899.928	78
899.979	74
