#Acq. time (s)=	3
#Accumulations=	2
#Range (nm)=	520...900
#Windows=	8
#Auto scanning=	Off
#Autofocus=	Off
#AutoExposure=	Off
#Spike filter=	Off
#Delay time (s)=	0
#Binning=	1
#Readout mode=	Signal
#DeNoise=	Off
#ICS correction=	Off
#Dark correction=	Off
#Inst. Process=	Off
#Detector temperature (°C)=	-59.98
#Instrument=	LabRAM HR Evol
#Detector=	Syncerity OE
#Objective=	x50_VIS
#Grating=	600 (500nm)
#ND Filter=	25%
#Laser=	514nm_Edge
#Hole=	199.981
#Range=	Visible
#StageXY=	Marzhauser
#StageZ=	Marzhauser
#X (µm)=	-9058.7
#Y (µm)=	-5026.8
#Z (µm)=	-261.6
#Full time(mm:ss)=	1:32
#Project=	
#Sample=	
#Site=	
#Title=	PL_M6_280424
#Remark=	
#Date=	06.05.2024 16:47
#Acquired=	06.05.2024 16:47:03
520.044	47
520.097	48
520.149	46
520.201	49
520.254	48
520.306	44
520.359	49
520.411	47
520.464	44
520.516	48
520.569	53
520.621	44
520.674	38
520.726	42
520.778	46
520.831	46
520.883	42
520.936	50
520.988	45
521.041	42
521.093	50
521.146	45
521.198	50
521.25	51
521.303	46
521.355	47
521.408	50
521.46	45
521.513	43
521.565	44
521.617	43
521.67	42
521.722	53
521.775	51
521.827	45
521.88	55
521.932	49
521.984	48
522.037	48
522.089	50
522.142	41
522.194	46
522.247	49
522.299	46
522.352	37
522.404	47
522.456	47
522.509	44
522.561	53
522.614	56
522.666	55
522.719	47
522.771	52
522.823	44
522.876	51
522.928	49
522.981	44
523.033	49
523.086	53
523.138	50
523.19	49
523.243	46
523.295	56
523.348	46
523.4	46
523.453	55
523.505	54
523.557	58
523.61	49
523.662	46
523.715	52
523.767	48
523.82	52
523.872	49
523.924	50
523.977	46
524.029	50
524.082	49
524.134	51
524.186	51
524.239	48
524.291	53
524.344	50
524.396	47
524.449	49
524.501	47
524.553	45
524.606	48
524.658	49
524.711	50
524.763	49
524.815	48
524.868	45
524.92	41
524.973	46
525.025	38
525.078	48
525.13	47
525.182	50
525.235	47
525.287	44
525.34	51
525.392	52
525.444	48
525.497	50
525.549	47
525.602	53
525.654	55
525.706	41
525.759	47
525.811	52
525.864	44
525.916	49
525.969	50
526.021	49
526.073	43
526.126	41
526.178	38
526.231	46
526.283	50
526.335	41
526.388	45
526.44	55
526.493	52
526.545	42
526.597	49
526.65	47
526.702	56
526.755	54
526.807	43
526.859	49
526.912	45
526.964	43
527.017	41
527.069	51
527.121	47
527.174	44
527.226	41
527.279	55
527.331	43
527.383	48
527.436	39
527.488	50
527.54	46
527.593	48
527.645	48
527.698	57
527.75	58
527.802	57
527.855	48
527.907	52
527.96	42
528.012	42
528.064	44
528.117	43
528.169	50
528.222	46
528.274	40
528.326	50
528.379	45
528.431	43
528.484	42
528.536	49
528.588	55
528.641	53
528.693	47
528.745	55
528.798	52
528.85	41
528.903	44
528.955	48
529.007	45
529.06	51
529.112	42
529.164	47
529.217	48
529.269	50
529.322	48
529.374	50
529.426	55
529.479	46
529.531	42
529.584	49
529.636	49
529.688	51
529.741	53
529.793	53
529.845	47
529.898	42
529.95	41
530.003	49
530.055	50
530.107	43
530.16	47
530.212	51
530.264	52
530.317	49
530.369	44
530.422	48
530.474	42
530.526	44
530.579	48
530.631	55
530.683	52
530.736	51
530.788	51
530.841	53
530.893	50
530.945	49
530.998	44
531.05	55
531.102	55
531.155	55
531.207	48
531.259	51
531.312	51
531.364	49
531.417	43
531.469	50
531.521	49
531.574	54
531.626	47
531.678	51
531.731	46
531.783	39
531.835	47
531.888	53
531.94	58
531.992	53
532.045	48
532.097	56
532.15	50
532.202	48
532.254	39
532.307	43
532.359	54
532.411	58
532.464	46
532.516	58
532.568	51
532.621	55
532.673	43
532.726	52
532.778	56
532.83	49
532.883	53
532.935	52
532.987	59
533.04	61
533.092	48
533.144	52
533.197	59
533.249	57
533.301	53
533.354	56
533.406	60
533.458	50
533.511	43
533.563	59
533.615	61
533.668	57
533.72	61
533.773	56
533.825	61
533.877	55
533.93	57
533.982	43
534.034	59
534.087	61
534.139	56
534.191	61
534.244	63
534.296	59
534.348	58
534.401	71
534.453	68
534.505	67
534.558	63
534.61	75
534.662	71
534.715	66
534.767	70
534.819	79
534.872	87
534.924	84
534.976	77
535.029	85
535.081	87
535.133	91
535.186	85
535.238	88
535.29	91
535.343	86
535.395	96
535.447	92
535.5	92
535.552	95
535.604	90
535.657	81
535.709	91
535.761	90
535.814	76
535.866	83
535.918	78
535.971	77
536.023	74
536.075	80
536.128	88
536.18	74
536.232	70
536.285	74
536.337	69
536.389	63
536.442	67
536.494	70
536.546	70
536.599	71
536.651	65
536.703	69
536.755	66
536.808	62
536.86	56
536.912	61
536.965	66
537.017	68
537.069	59
537.122	64
537.174	67
537.226	75
537.279	61
537.331	64
537.383	67
537.436	61
537.488	54
537.54	61
537.593	69
537.645	69
537.697	68
537.75	62
537.802	67
537.854	64
537.906	61
537.959	60
538.011	65
538.063	62
538.116	58
538.168	60
538.22	69
538.273	65
538.325	65
538.377	68
538.43	73
538.482	64
538.534	59
538.586	61
538.639	65
538.691	68
538.743	60
538.796	60
538.848	63
538.9	63
538.953	58
539.005	58
539.057	66
539.109	67
539.162	62
539.214	66
539.266	69
539.319	67
539.371	56
539.423	66
539.476	61
539.528	59
539.58	61
539.633	68
539.685	69
539.737	69
539.789	62
539.842	62
539.894	66
539.946	65
539.999	63
540.051	65
540.103	68
540.155	69
540.208	64
540.26	60
540.312	76
540.365	63
540.417	62
540.469	66
540.521	79
540.574	74
540.626	65
540.678	61
540.731	72
540.783	60
540.835	61
540.888	64
540.94	69
540.992	67
541.044	69
541.097	69
541.149	66
541.201	61
541.254	68
541.306	69
541.358	73
541.41	68
541.463	64
541.515	68
541.567	77
541.62	64
541.672	66
541.724	73
541.776	75
541.829	73
541.881	67
541.933	69
541.985	67
542.038	72
542.09	68
542.142	73
542.195	73
542.247	77
542.299	72
542.351	76
542.404	74
542.456	77
542.508	63
542.56	60
542.613	73
542.665	71
542.717	74
542.77	68
542.822	74
542.874	72
542.926	65
542.979	82
543.031	69
543.083	79
543.135	72
543.188	71
543.24	80
543.292	73
543.344	71
543.397	72
543.449	70
543.501	80
543.554	77
543.606	79
543.658	69
543.71	81
543.763	66
543.815	74
543.867	80
543.919	79
543.972	77
544.024	74
544.076	88
544.128	82
544.181	78
544.233	79
544.285	72
544.337	85
544.39	79
544.442	80
544.494	82
544.547	79
544.599	82
544.651	82
544.703	80
544.755	92
544.808	92
544.86	80
544.912	89
544.965	84
545.017	90
545.069	85
545.121	92
545.174	88
545.226	78
545.278	82
545.33	87
545.383	92
545.435	83
545.487	76
545.539	90
545.591	84
545.644	96
545.696	89
545.748	89
545.8	92
545.853	90
545.905	90
545.957	89
546.009	82
546.062	84
546.114	90
546.166	91
546.218	87
546.271	89
546.323	83
546.375	89
546.427	95
546.48	92
546.532	91
546.584	92
546.636	91
546.689	88
546.741	84
546.793	83
546.845	88
546.898	95
546.95	98
547.002	94
547.054	89
547.106	89
547.159	82
547.211	94
547.263	106
547.315	102
547.368	96
547.42	91
547.472	97
547.524	94
547.577	107
547.629	99
547.681	93
547.733	97
547.785	99
547.838	111
547.89	103
547.942	101
547.994	95
548.047	104
548.099	107
548.151	105
548.203	97
548.255	109
548.308	115
548.36	103
548.412	99
548.464	106
548.517	106
548.569	103
548.621	108
548.673	110
548.725	100
548.778	103
548.83	100
548.882	111
548.934	112
548.987	113
549.039	110
549.091	106
549.143	99
549.195	101
549.248	115
549.3	119
549.352	114
549.404	105
549.456	107
549.509	111
549.561	115
549.613	119
549.665	108
549.718	122
549.77	117
549.822	117
549.874	120
549.926	126
549.979	121
550.031	116
550.083	119
550.135	115
550.187	122
550.24	126
550.292	122
550.344	131
550.396	127
550.448	119
550.501	128
550.553	129
550.605	141
550.657	133
550.709	124
550.762	134
550.814	147
550.866	154
550.918	137
550.97	140
551.023	145
551.075	144
551.127	146
551.179	149
551.231	143
551.284	169
551.336	145
551.388	157
551.44	172
551.492	160
551.545	169
551.597	164
551.649	164
551.701	173
551.753	187
551.806	209
551.858	207
551.91	212
551.962	226
552.014	254
552.067	280
552.119	287
552.171	320
552.223	370
552.275	434
552.327	515
552.38	684
552.432	1040
552.484	2253
552.536	4764
552.588	8306
552.641	14005
552.693	22040
552.745	29167
552.797	21332
552.849	9179
552.901	3050
552.954	1345
553.006	814
553.058	588
553.11	449
553.162	378
553.215	332
553.267	282
553.319	269
553.371	237
553.423	220
553.475	227
553.528	207
553.58	202
553.632	190
553.684	179
553.736	190
553.788	193
553.841	187
553.893	172
553.945	170
553.997	165
554.049	175
554.102	172
554.154	172
554.206	160
554.258	164
554.31	170
554.362	161
554.414	155
554.467	159
554.519	175
554.571	160
554.623	162
554.675	156
554.727	162
554.78	159
554.832	158
554.884	157
554.936	156
554.988	156
555.04	173
555.093	156
555.145	154
555.197	167
555.249	171
555.301	156
555.353	171
555.406	159
555.458	162
555.51	160
555.562	159
555.614	162
555.666	153
555.719	156
555.771	159
555.823	159
555.875	155
555.927	155
555.979	155
556.031	170
556.084	171
556.136	162
556.188	171
556.24	160
556.292	170
556.344	167
556.396	167
556.449	172
556.501	188
556.553	163
556.605	159
556.657	176
556.709	173
556.762	175
556.814	186
556.866	181
556.918	178
556.97	169
557.022	166
557.074	182
557.127	170
557.179	176
557.231	178
557.283	179
557.335	178
557.387	170
557.439	187
557.492	183
557.544	194
557.596	179
557.648	186
557.7	184
557.752	169
557.804	189
557.856	190
557.909	184
557.961	180
558.013	173
558.065	190
558.117	194
558.169	178
558.221	176
558.273	187
558.326	205
558.378	196
558.43	184
558.482	196
558.534	189
558.586	189
558.638	193
558.691	183
558.743	193
558.795	190
558.847	198
558.899	194
558.951	205
559.003	192
559.055	197
559.108	202
559.16	195
559.212	199
559.264	197
559.316	180
559.368	193
559.42	190
559.472	203
559.525	212
559.577	200
559.629	211
559.681	212
559.733	192
559.785	203
559.837	203
559.889	206
559.941	212
559.994	201
560.046	211
560.098	198
560.15	211
560.202	202
560.254	219
560.306	219
560.358	205
560.41	211
560.463	227
560.515	220
560.567	218
560.619	215
560.671	226
560.723	217
560.775	221
560.827	224
560.879	216
560.932	212
560.984	210
561.036	219
561.088	229
561.14	210
561.192	220
561.244	228
561.296	227
561.348	236
561.4	225
561.453	241
561.505	225
561.557	217
561.609	223
561.661	237
561.713	250
561.765	248
561.817	243
561.869	234
561.921	242
561.974	235
562.026	250
562.078	251
562.13	246
562.182	250
562.234	246
562.286	238
562.338	247
562.39	247
562.442	244
562.494	263
562.547	249
562.599	254
562.651	237
562.703	272
562.755	249
562.807	259
562.859	271
562.911	262
562.963	265
563.015	276
563.067	268
563.12	269
563.172	270
563.224	284
563.276	270
563.328	284
563.38	280
563.432	277
563.484	279
563.536	298
563.588	294
563.64	302
563.692	297
563.744	305
563.797	302
563.849	311
563.901	316
563.953	325
564.005	337
564.057	326
564.109	309
564.161	344
564.213	344
564.265	349
564.317	338
564.369	330
564.421	322
564.474	318
564.526	329
564.578	325
564.63	321
564.682	329
564.734	310
564.786	319
564.838	326
564.89	327
564.942	321
564.994	317
565.046	318
565.098	307
565.15	299
565.202	309
565.255	322
565.307	313
565.359	310
565.411	312
565.463	306
565.515	320
565.567	323
565.619	302
565.671	320
565.723	311
565.775	322
565.827	308
565.879	316
565.931	328
565.983	338
566.035	346
566.087	324
566.139	319
566.192	307
566.244	313
566.296	317
566.348	335
566.4	334
566.452	330
566.504	347
566.556	337
566.608	336
566.66	331
566.712	331
566.764	345
566.816	340
566.868	338
566.92	330
566.972	355
567.024	341
567.076	342
567.128	340
567.18	339
567.232	349
567.285	369
567.337	360
567.389	350
567.441	351
567.493	353
567.545	362
567.597	367
567.649	348
567.701	362
567.753	357
567.805	347
567.857	358
567.909	364
567.961	364
568.013	370
568.065	352
568.117	366.975
568.169	370.745
568.221	367.541
568.273	356.008
568.325	365.754
568.377	375.346
568.429	355.813
568.481	369.517
568.533	371.537
568.585	382.479
568.637	390.903
568.69	382.983
568.742	390.434
568.794	397.564
568.846	378.744
568.898	386.361
568.95	390.84
569.002	386.462
569.054	390.437
569.106	393.568
569.158	372.914
569.21	394.621
569.262	394.978
569.314	381.412
569.366	396.089
569.418	382.508
569.47	393.111
569.522	405.969
569.574	404.15
569.626	389.241
569.678	397.118
569.73	406.51
569.782	420.793
569.834	417.224
569.886	411.176
569.938	409.446
569.99	419.611
570.042	413.547
570.094	430.899
570.146	411.884
570.198	429.734
570.25	423.597
570.302	430.92
570.354	426.263
570.406	420.111
570.458	444.36
570.51	437.712
570.562	443.816
570.614	450.216
570.666	452.708
570.718	446.691
570.77	451.399
570.822	447.623
570.874	450.2
570.926	455.527
570.978	455.34
571.03	479.672
571.082	472.843
571.134	471.475
571.186	474.436
571.238	474.853
571.29	484.042
571.342	482.474
571.394	486.123
571.446	492.201
571.498	491.658
571.55	495.204
571.602	495.528
571.654	509.021
571.706	510.2
571.758	515.619
571.81	533.124
571.862	532.277
571.914	525.12
571.966	533.481
572.018	536.5
572.07	538.214
572.122	529.923
572.174	546.881
572.226	548.633
572.278	560.985
572.33	552.578
572.382	567.537
572.434	586.246
572.486	584.242
572.538	580.546
572.59	587.352
572.642	574.109
572.694	604.822
572.746	609.265
572.798	593.89
572.85	629.854
572.902	626.719
572.954	624.598
573.006	635.245
573.058	644.369
573.11	666.391
573.162	656.56
573.214	648.104
573.266	682.969
573.312	674
573.364	677
573.416	705
573.469	712
573.521	723
573.573	754
573.625	720
573.677	741
573.73	741
573.782	758
573.834	801
573.886	769
573.938	805
573.991	811
574.043	824
574.095	856
574.147	859
574.199	864
574.252	874
574.304	865
574.356	910
574.408	925
574.46	930
574.513	933
574.565	959
574.617	976
574.669	1003
574.721	1036
574.774	1011
574.826	1032
574.878	1054
574.93	1072
574.982	1119
575.035	1113
575.087	1148
575.139	1174
575.191	1155
575.243	1155
575.296	1212
575.348	1234
575.4	1224
575.452	1286
575.504	1235
575.556	1286
575.609	1284
575.661	1317
575.713	1298
575.765	1293
575.817	1297
575.87	1308
575.922	1339
575.974	1333
576.026	1334
576.078	1338
576.131	1361
576.183	1381
576.235	1325
576.287	1345
576.339	1335
576.391	1372
576.444	1333
576.496	1362
576.548	1341
576.6	1333
576.652	1331
576.705	1303
576.757	1298
576.809	1280
576.861	1274
576.913	1261
576.965	1232
577.018	1238
577.07	1222
577.122	1201
577.174	1188
577.226	1192
577.279	1163
577.331	1155
577.383	1149
577.435	1137
577.487	1148
577.539	1100
577.592	1087
577.644	1080
577.696	1082
577.748	1077
577.8	1044
577.852	1036
577.905	1038
577.957	1039
578.009	1028
578.061	986
578.113	1000
578.165	989
578.218	965
578.27	981
578.322	940
578.374	963
578.426	942
578.478	955
578.531	951
578.583	942
578.635	881
578.687	938
578.739	905
578.791	903
578.844	923
578.896	923
578.948	920
579	895
579.052	912
579.104	916
579.157	907
579.209	888
579.261	884
579.313	887
579.365	876
579.417	884
579.47	873
579.522	902
579.574	880
579.626	913
579.678	891
579.73	882
579.782	896
579.835	906
579.887	896
579.939	884
579.991	885
580.043	881
580.095	890
580.148	884
580.2	892
580.252	886
580.304	894
580.356	893
580.408	860
580.46	906
580.513	878
580.565	863
580.617	895
580.669	860
580.721	865
580.773	885
580.826	886
580.878	849
580.93	891
580.982	864
581.034	881
581.086	876
581.138	861
581.191	881
581.243	884
581.295	874
581.347	880
581.399	887
581.451	896
581.503	894
581.556	879
581.608	897
581.66	891
581.712	901
581.764	879
581.816	874
581.868	931
581.92	909
581.973	887
582.025	904
582.077	912
582.129	904
582.181	888
582.233	904
582.285	915
582.338	905
582.39	918
582.442	932
582.494	927
582.546	901
582.598	937
582.65	913
582.703	927
582.755	931
582.807	930
582.859	940
582.911	954
582.963	940
583.015	942
583.067	931
583.12	944
583.172	943
583.224	940
583.276	953
583.328	981
583.38	963
583.432	962
583.484	960
583.537	936
583.589	984
583.641	978
583.693	989
583.745	968
583.797	974
583.849	978
583.901	999
583.953	985
584.006	991
584.058	1006
584.11	1017
584.162	996
584.214	1013
584.266	1034
584.318	1026
584.37	999
584.423	1018
584.475	1021
584.527	1053
584.579	1069
584.631	1045
584.683	1020
584.735	1055
584.787	1020
584.839	1053
584.892	1090
584.944	1038
584.996	1096
585.048	1092
585.1	1086
585.152	1059
585.204	1075
585.256	1093
585.308	1098
585.361	1105
585.413	1104
585.465	1106
585.517	1097
585.569	1099
585.621	1092
585.673	1105
585.725	1134
585.777	1121
585.83	1119
585.882	1087
585.934	1129
585.986	1114
586.038	1116
586.09	1127
586.142	1153
586.194	1165
586.246	1149
586.298	1172
586.351	1149
586.403	1174
586.455	1178
586.507	1156
586.559	1159
586.611	1161
586.663	1161
586.715	1168
586.767	1151
586.819	1174
586.872	1186
586.924	1203
586.976	1175
587.028	1196
587.08	1207
587.132	1185
587.184	1203
587.236	1209
587.288	1230
587.34	1200
587.392	1195
587.445	1207
587.497	1195
587.549	1254
587.601	1195
587.653	1229
587.705	1219
587.757	1225
587.809	1203
587.861	1240
587.913	1215
587.965	1223
588.018	1222
588.07	1219
588.122	1218
588.174	1256
588.226	1234
588.278	1230
588.33	1215
588.382	1230
588.434	1220
588.486	1254
588.538	1250
588.59	1236
588.642	1243
588.695	1237
588.747	1228
588.799	1212
588.851	1262
588.903	1249
588.955	1261
589.007	1243
589.059	1260
589.111	1298
589.163	1247
589.215	1301
589.267	1297
589.319	1282
589.372	1301
589.424	1305
589.476	1314
589.528	1305
589.58	1308
589.632	1297
589.684	1347
589.736	1291
589.788	1322
589.84	1266
589.892	1322
589.944	1269
589.996	1286
590.048	1308
590.101	1313
590.153	1297
590.205	1294
590.257	1298
590.309	1307
590.361	1286
590.413	1277
590.465	1321
590.517	1316
590.569	1269
590.621	1265
590.673	1296
590.725	1331
590.777	1275
590.829	1274
590.881	1267
590.933	1314
590.986	1300
591.038	1272
591.09	1272
591.142	1268
591.194	1251
591.246	1281
591.298	1292
591.35	1256
591.402	1263
591.454	1243
591.506	1257
591.558	1243
591.61	1259
591.662	1259
591.714	1259
591.766	1289
591.818	1277
591.87	1261
591.923	1244
591.975	1224
592.027	1234
592.079	1246
592.131	1218
592.183	1220
592.235	1228
592.287	1248
592.339	1225
592.391	1251
592.443	1240
592.495	1238
592.547	1233
592.599	1257
592.651	1254
592.703	1240
592.755	1253
592.807	1250
592.859	1228
592.911	1236
592.963	1211
593.015	1216
593.068	1233
593.12	1224
593.172	1235
593.224	1247
593.276	1225
593.328	1256
593.38	1222
593.432	1248
593.484	1209
593.536	1263
593.588	1225
593.64	1205
593.692	1232
593.744	1223
593.796	1240
593.848	1233
593.9	1257
593.952	1235
594.004	1211
594.056	1255
594.108	1237
594.16	1225
594.212	1253
594.264	1277
594.316	1224
594.368	1274
594.42	1278
594.472	1263
594.524	1233
594.576	1264
594.628	1269
594.68	1239
594.732	1250
594.784	1256
594.837	1275
594.889	1262
594.941	1250
594.993	1256
595.045	1272
595.097	1303
595.149	1259
595.201	1256
595.253	1254
595.305	1262
595.357	1265
595.409	1288
595.461	1284
595.513	1250
595.565	1303
595.617	1301
595.669	1315
595.721	1299
595.773	1328
595.825	1300
595.877	1306
595.929	1341
595.981	1282
596.033	1329
596.085	1321
596.137	1329
596.189	1329
596.241	1328
596.293	1321
596.345	1327
596.397	1323
596.449	1365
596.501	1341
596.553	1403
596.605	1385
596.657	1380
596.709	1378
596.761	1393
596.813	1382
596.865	1411
596.917	1394
596.969	1388
597.021	1365
597.073	1378
597.125	1364
597.177	1368
597.229	1382
597.281	1356
597.333	1371
597.385	1376
597.437	1394
597.489	1363
597.541	1394
597.593	1407
597.645	1391
597.697	1414
597.749	1424
597.801	1410
597.853	1415
597.905	1401
597.957	1406
598.009	1418
598.061	1403
598.113	1399
598.165	1428
598.217	1407
598.269	1447
598.321	1429
598.373	1420
598.425	1404
598.477	1412
598.529	1450
598.581	1415
598.633	1436
598.685	1450
598.737	1407
598.789	1397
598.841	1417
598.893	1412
598.945	1421
598.997	1433
599.049	1415
599.101	1395
599.153	1430
599.205	1413
599.257	1425
599.309	1410
599.361	1426
599.413	1402
599.465	1412
599.517	1369
599.569	1380
599.62	1461
599.672	1446
599.724	1402
599.776	1429
599.828	1425
599.88	1423
599.932	1443
599.984	1452
600.036	1427
600.088	1417
600.14	1424
600.192	1451
600.244	1407
600.296	1403
600.348	1394
600.4	1415
600.452	1438
600.504	1445
600.556	1420
600.608	1428
600.66	1413
600.712	1424
600.764	1398
600.816	1407
600.868	1429
600.92	1418
600.972	1428
601.024	1412
601.076	1430
601.128	1449
601.18	1431
601.232	1390
601.284	1437
601.335	1415
601.387	1428
601.439	1417
601.491	1426
601.543	1406
601.595	1415
601.647	1449
601.699	1400
601.751	1442
601.803	1426
601.855	1438
601.907	1436
601.959	1422
602.011	1433
602.063	1400
602.115	1444
602.167	1410
602.219	1438
602.271	1452
602.323	1433
602.375	1462
602.427	1443
602.478	1409
602.53	1452
602.582	1439
602.634	1472
602.686	1449
602.738	1429
602.79	1471
602.842	1416
602.894	1458
602.946	1448
602.998	1449
603.05	1463
603.102	1474
603.154	1454
603.206	1465
603.258	1466
603.31	1459
603.362	1437
603.413	1452
603.465	1452
603.517	1453
603.569	1464
603.621	1494
603.673	1462
603.725	1506
603.777	1496
603.829	1450
603.881	1508
603.933	1472
603.985	1489
604.037	1463
604.089	1501
604.141	1469
604.193	1433
604.244	1487
604.296	1467
604.348	1484
604.4	1453
604.452	1503
604.504	1473
604.556	1496
604.608	1476
604.66	1500
604.712	1492
604.764	1458
604.816	1491
604.868	1492
604.92	1450
604.971	1470
605.023	1500
605.075	1488
605.127	1482
605.179	1494
605.231	1509
605.283	1501
605.335	1527
605.387	1516
605.439	1486
605.491	1505
605.543	1481
605.594	1482
605.646	1524
605.698	1503
605.75	1489
605.802	1499
605.854	1480
605.906	1483
605.958	1506
606.01	1460
606.062	1492
606.114	1471
606.166	1508
606.217	1506
606.269	1504
606.321	1478
606.373	1532
606.425	1479
606.477	1517
606.529	1512
606.581	1521
606.633	1489
606.685	1508
606.737	1477
606.789	1491
606.84	1493
606.892	1479
606.944	1528
606.996	1504
607.048	1502
607.1	1512
607.152	1496
607.204	1525
607.256	1498
607.308	1489
607.359	1536
607.411	1490
607.463	1523
607.515	1542
607.567	1505
607.619	1507
607.671	1521
607.723	1523
607.775	1519
607.827	1517
607.878	1539
607.93	1526
607.982	1511
608.034	1491
608.086	1503
608.138	1537
608.19	1525
608.242	1557
608.294	1516
608.345	1531
608.397	1509
608.449	1524
608.501	1528
608.553	1520
608.605	1532
608.657	1544
608.709	1573
608.761	1532
608.812	1567
608.864	1550
608.916	1558
608.968	1563
609.02	1508
609.072	1575
609.124	1549
609.176	1554
609.228	1494
609.279	1573
609.331	1574
609.383	1561
609.435	1568
609.487	1543
609.539	1548
609.591	1597
609.643	1552
609.694	1553
609.746	1585
609.798	1560
609.85	1607
609.902	1619
609.954	1571
610.006	1565
610.058	1572
610.109	1568
610.161	1594
610.213	1586
610.265	1572
610.317	1591
610.369	1621
610.421	1609
610.473	1616
610.524	1590
610.576	1614
610.628	1584
610.68	1610
610.732	1612
610.784	1593
610.836	1603
610.887	1602
610.939	1614
610.991	1613
611.043	1616
611.095	1611
611.147	1620
611.199	1584
611.25	1608
611.302	1655
611.354	1610
611.406	1584
611.458	1628
611.51	1644
611.562	1654
611.614	1637
611.665	1591
611.717	1639
611.769	1617
611.821	1674
611.873	1629
611.925	1637
611.977	1658
612.028	1649
612.08	1673
612.132	1673
612.184	1652
612.236	1664
612.288	1686
612.339	1659
612.391	1665
612.443	1658
612.495	1676
612.547	1647
612.599	1681
612.651	1647
612.702	1680
612.754	1654
612.806	1665
612.858	1645
612.91	1683
612.962	1654
613.013	1680
613.065	1723
613.117	1692
613.169	1711
613.221	1671
613.273	1699
613.325	1738
613.376	1696
613.428	1728
613.48	1699
613.532	1737
613.584	1742
613.635	1728
613.687	1739
613.739	1717
613.791	1725
613.843	1753
613.895	1757
613.947	1736
613.998	1741
614.05	1712
614.102	1772
614.154	1749
614.206	1717
614.258	1798
614.309	1746
614.361	1795
614.413	1758
614.465	1769
614.517	1751
614.568	1776
614.62	1770
614.672	1775
614.724	1790
614.776	1780
614.828	1753
614.879	1767
614.931	1783
614.983	1782
615.035	1795
615.087	1779
615.139	1800
615.19	1777
615.242	1773
615.294	1820
615.346	1793
615.398	1808
615.449	1792
615.501	1832
615.553	1845
615.605	1817
615.657	1856
615.709	1785
615.76	1859
615.812	1831
615.864	1833
615.916	1854
615.968	1841
616.019	1841.46
616.071	1830.23
616.123	1842.31
616.175	1846.27
616.227	1879.8
616.278	1829.87
616.33	1841.31
616.382	1846.37
616.434	1813.28
616.486	1827.16
616.537	1877.18
616.589	1885.05
616.641	1834.49
616.693	1850.34
616.745	1855.06
616.797	1866.02
616.848	1862.42
616.9	1872.62
616.952	1887.51
617.004	1838.71
617.056	1879.63
617.107	1841.52
617.159	1885.04
617.211	1868.69
617.263	1928.03
617.315	1868.65
617.366	1859.54
617.418	1917.28
617.47	1862.41
617.522	1876.36
617.573	1899.2
617.625	1903.27
617.677	1890.24
617.729	1886.18
617.781	1918.72
617.832	1883.27
617.884	1889.56
617.936	1902.2
617.988	1899.88
618.04	1923.69
618.091	1919.77
618.143	1917.8
618.195	1922.91
618.247	1911.94
618.299	1932.77
618.35	1921.82
618.402	1903.58
618.454	1946.68
618.506	1926.82
618.557	1935.95
618.609	1915.6
618.661	1923.94
618.713	1918.53
618.765	1908.25
618.816	1961.46
618.868	1926.46
618.92	1957.23
618.972	1935.66
619.023	1955.45
619.075	1919.39
619.127	1935.32
619.179	1963.25
619.231	1973.36
619.282	1953.31
619.334	1953.88
619.386	1948.76
619.438	1963.22
619.49	1963.4
619.541	1954.06
619.593	1968.66
619.645	1983.54
619.697	1972.29
619.748	1966.97
619.8	1967.61
619.852	1966.28
619.904	1975.16
619.955	1989.21
620.007	1992.9
620.059	1987.88
620.111	1974.16
620.162	1963.35
620.214	1993.62
620.266	1990.74
620.318	1987.39
620.37	1986.17
620.421	1994.74
620.473	1997.22
620.525	2009.17
620.577	2012.59
620.628	2010.57
620.68	2003.52
620.732	1996.83
620.784	1991.93
620.835	1989.99
620.887	2009.49
620.939	2003.09
620.991	2010.01
621.042	2013.71
621.094	2011.62
621.146	2015.11
621.198	2034.88
621.249	2024.53
621.269	2012
621.321	2023
621.373	2026
621.425	2045
621.477	2011
621.529	2018
621.581	2031
621.633	2054
621.685	2070
621.737	2084
621.789	2056
621.841	2072
621.893	2103
621.945	2047
621.997	2090
622.049	2112
622.101	2139
622.153	2135
622.205	2067
622.257	2150
622.309	2159
622.361	2135
622.413	2154
622.465	2187
622.517	2186
622.569	2279
622.621	2240
622.673	2262
622.725	2269
622.776	2285
622.828	2357
622.88	2349
622.932	2359
622.984	2338
623.036	2331
623.088	2281
623.14	2306
623.192	2305
623.244	2331
623.296	2311
623.348	2282
623.4	2285
623.452	2310
623.504	2253
623.556	2237
623.608	2212
623.66	2221
623.712	2165
623.764	2209
623.816	2203
623.868	2197
623.92	2196
623.972	2209
624.024	2197
624.076	2161
624.128	2135
624.18	2183
624.232	2131
624.284	2116
624.336	2166
624.388	2123
624.44	2145
624.492	2168
624.544	2116
624.596	2121
624.648	2146
624.699	2106
624.751	2155
624.803	2121
624.855	2149
624.907	2147
624.959	2133
625.011	2167
625.063	2114
625.115	2156
625.167	2134
625.219	2104
625.271	2122
625.323	2136
625.375	2110
625.427	2095
625.479	2134
625.531	2115
625.583	2155
625.635	2193
625.687	2114
625.739	2118
625.791	2136
625.843	2167
625.895	2187
625.946	2113
625.998	2116
626.05	2093
626.102	2156
626.154	2159
626.206	2116
626.258	2166
626.31	2143
626.362	2174
626.414	2168
626.466	2182
626.518	2158
626.57	2202
626.622	2169
626.674	2149
626.726	2116
626.778	2179
626.83	2178
626.882	2165
626.934	2217
626.985	2160
627.037	2189
627.089	2165
627.141	2151
627.193	2136
627.245	2164
627.297	2169
627.349	2177
627.401	2212
627.453	2198
627.505	2184
627.557	2211
627.609	2171
627.661	2194
627.713	2182
627.765	2200
627.817	2178
627.868	2212
627.92	2228
627.972	2201
628.024	2181
628.076	2215
628.128	2229
628.18	2223
628.232	2223
628.284	2212
628.336	2193
628.388	2205
628.44	2215
628.492	2216
628.544	2250
628.596	2267
628.647	2171
628.699	2213
628.751	2270
628.803	2175
628.855	2272
628.907	2246
628.959	2260
629.011	2268
629.063	2268
629.115	2276
629.167	2248
629.219	2299
629.271	2247
629.322	2290
629.374	2302
629.426	2238
629.478	2263
629.53	2218
629.582	2249
629.634	2260
629.686	2279
629.738	2277
629.79	2271
629.842	2264
629.894	2264
629.945	2272
629.997	2287
630.049	2301
630.101	2282
630.153	2259
630.205	2286
630.257	2325
630.309	2339
630.361	2329
630.413	2335
630.465	2318
630.517	2308
630.568	2334
630.62	2335
630.672	2348
630.724	2352
630.776	2359
630.828	2338
630.88	2308
630.932	2337
630.984	2365
631.036	2323
631.088	2385
631.14	2342
631.191	2407
631.243	2364
631.295	2340
631.347	2373
631.399	2375
631.451	2388
631.503	2367
631.555	2389
631.607	2311
631.659	2394
631.71	2418
631.762	2403
631.814	2364
631.866	2346
631.918	2390
631.97	2399
632.022	2404
632.074	2409
632.126	2440
632.178	2418
632.229	2391
632.281	2397
632.333	2451
632.385	2433
632.437	2441
632.489	2442
632.541	2480
632.593	2411
632.645	2444
632.696	2488
632.748	2472
632.8	2459
632.852	2454
632.904	2437
632.956	2521
633.008	2419
633.06	2449
633.112	2497
633.164	2474
633.215	2430
633.267	2509
633.319	2519
633.371	2490
633.423	2499
633.475	2520
633.527	2505
633.579	2501
633.63	2516
633.682	2540
633.734	2521
633.786	2549
633.838	2572
633.89	2539
633.942	2534
633.994	2551
634.046	2527
634.097	2554
634.149	2535
634.201	2558
634.253	2596
634.305	2542
634.357	2553
634.409	2567
634.461	2558
634.512	2569
634.564	2602
634.616	2616
634.668	2581
634.72	2624
634.772	2662
634.824	2665
634.876	2632
634.927	2671
634.979	2624
635.031	2656
635.083	2667
635.135	2628
635.187	2656
635.239	2671
635.291	2688
635.342	2704
635.394	2665
635.446	2701
635.498	2660
635.55	2708
635.602	2690
635.654	2736
635.705	2680
635.757	2705
635.809	2762
635.861	2716
635.913	2775
635.965	2790
636.017	2781
636.068	2739
636.12	2823
636.172	2856
636.224	2824
636.276	2834
636.328	2863
636.38	2850
636.431	2887
636.483	2875
636.535	2924
636.587	2955
636.639	2925
636.691	2939
636.743	3012
636.794	3008
636.846	3039
636.898	2985
636.95	3093
637.002	3074
637.054	3139
637.106	3103
637.157	3196
637.209	3130
637.261	3246
637.313	3205
637.365	3215
637.417	3265
637.469	3355
637.52	3380
637.572	3378
637.624	3418
637.676	3487
637.728	3484
637.78	3540
637.831	3582
637.883	3543
637.935	3643
637.987	3627
638.039	3678
638.091	3714
638.143	3783
638.194	3803
638.246	3741
638.298	3808
638.35	3827
638.402	3850
638.454	3860
638.505	3842
638.557	3908
638.609	3931
638.661	3898
638.713	3936
638.765	3949
638.816	3865
638.868	3931
638.92	3963
638.972	3911
639.024	3893
639.076	3896
639.127	3880
639.179	3857
639.231	3913
639.283	3869
639.335	3817
639.387	3722
639.438	3735
639.49	3751
639.542	3730
639.594	3706
639.646	3692
639.698	3618
639.749	3656
639.801	3672
639.853	3612
639.905	3562
639.957	3509
640.008	3494
640.06	3516
640.112	3472
640.164	3452
640.216	3408
640.268	3438
640.319	3424
640.371	3378
640.423	3416
640.475	3383
640.527	3405
640.578	3324
640.63	3386
640.682	3346
640.734	3329
640.786	3311
640.838	3307
640.889	3368
640.941	3299
640.993	3306
641.045	3291
641.097	3304
641.148	3228
641.2	3300
641.252	3282
641.304	3256
641.356	3237
641.408	3269
641.459	3214
641.511	3244
641.563	3222
641.615	3238
641.667	3319
641.718	3239
641.77	3198
641.822	3225
641.874	3194
641.926	3200
641.977	3204
642.029	3214
642.081	3257
642.133	3221
642.185	3228
642.236	3214
642.288	3212
642.34	3221
642.392	3208
642.444	3168
642.495	3219
642.547	3195
642.599	3220
642.651	3219
642.703	3236
642.754	3224
642.806	3185
642.858	3224
642.91	3156
642.962	3256
643.013	3188
643.065	3210
643.117	3206
643.169	3243
643.221	3231
643.272	3195
643.324	3172
643.376	3257
643.428	3172
643.479	3225
643.531	3206
643.583	3194
643.635	3240
643.687	3271
643.738	3272
643.79	3238
643.842	3238
643.894	3244
643.946	3189
643.997	3232
644.049	3204
644.101	3201
644.153	3228
644.205	3289
644.256	3219
644.308	3238
644.36	3236
644.412	3239
644.463	3238
644.515	3269
644.567	3266
644.619	3252
644.671	3277
644.722	3305
644.774	3263
644.826	3268
644.878	3247
644.929	3285
644.981	3285
645.033	3265
645.085	3280
645.136	3244
645.188	3319
645.24	3271
645.292	3295
645.344	3307
645.395	3280
645.447	3285
645.499	3335
645.551	3313
645.602	3302
645.654	3339
645.706	3293
645.758	3259
645.81	3265
645.861	3308
645.913	3273
645.965	3291
646.017	3345
646.068	3299
646.12	3273
646.172	3331
646.224	3329
646.275	3274
646.327	3314
646.379	3323
646.431	3308
646.482	3391
646.534	3332
646.586	3354
646.638	3341
646.689	3345
646.741	3377
646.793	3399
646.845	3337
646.896	3327
646.948	3362
647	3380
647.052	3363
647.104	3352
647.155	3378
647.207	3352
647.259	3366
647.31	3426
647.362	3356
647.414	3380
647.466	3394
647.518	3369
647.569	3377
647.621	3396
647.673	3420
647.724	3396
647.776	3341
647.828	3371
647.88	3445
647.931	3437
647.983	3400
648.035	3376
648.087	3405
648.138	3450
648.19	3363
648.242	3400
648.294	3440
648.345	3391
648.397	3445
648.449	3433
648.501	3436
648.552	3448
648.604	3427
648.656	3452
648.708	3433
648.759	3453
648.811	3489
648.863	3438
648.915	3501
648.966	3465
649.018	3476
649.07	3453
649.121	3497
649.173	3519
649.225	3511
649.277	3465
649.328	3529
649.38	3535
649.432	3501
649.484	3542
649.535	3518
649.587	3544
649.639	3582
649.69	3504
649.742	3584
649.794	3504
649.846	3594
649.897	3543
649.949	3567
650.001	3609
650.053	3587
650.104	3615
650.156	3577
650.208	3571
650.259	3633
650.311	3588
650.363	3568
650.415	3624
650.466	3544
650.518	3600
650.57	3629
650.621	3604
650.673	3636
650.725	3620
650.777	3642
650.828	3661
650.88	3640
650.932	3672
650.984	3630
651.035	3654
651.087	3682
651.139	3645
651.19	3651
651.242	3668
651.294	3671
651.345	3669
651.397	3662
651.449	3661
651.501	3709
651.552	3719
651.604	3679
651.656	3676
651.707	3720
651.759	3676
651.811	3738
651.863	3752
651.914	3711
651.966	3803
652.018	3707
652.069	3716
652.121	3754
652.173	3754
652.224	3747
652.276	3768
652.328	3712
652.38	3791
652.431	3746
652.483	3780
652.535	3813
652.586	3761
652.638	3790
652.69	3782
652.741	3775
652.793	3765
652.845	3813
652.897	3776
652.948	3843
653	3791
653.052	3851
653.103	3861
653.155	3844
653.207	3869
653.258	3911
653.31	3841
653.362	3834
653.413	3875
653.465	3904
653.517	3941
653.568	3879
653.62	3925
653.672	3924
653.724	3918
653.775	3910
653.827	3869
653.879	3900
653.93	3896
653.982	3943
654.034	3852
654.085	3897
654.137	3960
654.189	3936
654.24	3978
654.292	3928
654.344	3983
654.395	3986
654.447	3941
654.499	3969
654.55	3986
654.602	3991
654.654	4097
654.705	4034
654.757	4032
654.809	4046
654.86	3991
654.912	4027
654.964	4016
655.016	4097
655.067	4127
655.119	4091
655.17	4062
655.222	4116
655.274	4092
655.326	4109
655.377	4127
655.429	4164
655.481	4160
655.532	4193
655.584	4189
655.635	4153
655.687	4174
655.739	4222
655.79	4120
655.842	4225
655.894	4172
655.945	4217
655.997	4204
656.049	4226
656.1	4255
656.152	4285
656.204	4272
656.255	4237
656.307	4254
656.359	4354
656.41	4292
656.462	4322
656.514	4305
656.565	4348
656.617	4308
656.669	4338
656.72	4293
656.772	4356
656.824	4318
656.875	4384
656.927	4346
656.979	4432
657.03	4430
657.082	4354
657.134	4351
657.185	4467
657.237	4410
657.288	4433
657.34	4455
657.392	4450
657.443	4385
657.495	4492
657.547	4468
657.598	4483
657.65	4522
657.702	4456
657.753	4510
657.805	4532
657.857	4500
657.908	4536
657.96	4480
658.011	4509
658.063	4529
658.115	4587
658.166	4536
658.218	4508
658.27	4556
658.321	4542
658.373	4522
658.425	4577
658.476	4559
658.528	4623
658.579	4519
658.631	4662
658.683	4575
658.734	4578
658.786	4636
658.838	4632
658.889	4625
658.941	4633
658.992	4612
659.044	4586
659.096	4659
659.147	4616
659.199	4610
659.251	4595
659.302	4667
659.354	4612
659.406	4735
659.457	4712
659.509	4657
659.56	4665
659.612	4675
659.664	4684
659.715	4616
659.767	4753
659.818	4617
659.87	4707
659.922	4676
659.973	4677
660.025	4683
660.077	4658
660.128	4698
660.18	4703
660.231	4709
660.283	4721
660.335	4677
660.386	4626
660.438	4687
660.49	4702
660.541	4724
660.593	4721
660.644	4701
660.696	4747
660.748	4758
660.799	4772
660.851	4711
660.902	4731
660.954	4726
661.006	4696
661.057	4718
661.109	4738
661.16	4692
661.212	4757
661.264	4739
661.315	4809
661.367	4706
661.418	4776
661.47	4735
661.522	4727
661.573	4715
661.625	4716
661.676	4755
661.728	4741
661.78	4689
661.831	4731
661.883	4757
661.934	4698
661.986	4742
662.038	4732
662.089	4753
662.141	4760
662.192	4760
662.244	4761
662.296	4772
662.347	4722
662.399	4771
662.45	4760
662.502	4754
662.554	4744
662.605	4742
662.657	4791
662.708	4759
662.76	4749
662.811	4802
662.863	4774
662.915	4748
662.966	4707
663.018	4723
663.069	4700
663.121	4743
663.173	4833
663.224	4708
663.276	4755
663.327	4749
663.379	4732
663.43	4722
663.482	4771
663.534	4827
663.585	4819
663.637	4702
663.688	4742
663.74	4764.14
663.792	4806.31
663.843	4764.96
663.895	4741.25
663.946	4740.26
663.998	4757.16
664.049	4770.47
664.101	4734.57
664.153	4732.57
664.204	4753.82
664.256	4743.87
664.307	4742.61
664.359	4766.27
664.41	4745.53
664.462	4757.51
664.513	4800.79
664.565	4725.85
664.617	4766.76
664.668	4754.05
664.72	4736.04
664.771	4728.21
664.823	4733.3
664.874	4787.79
664.926	4775.4
664.978	4781.78
665.029	4748.69
665.081	4753.59
665.132	4757.43
665.184	4771.29
665.235	4760.23
665.287	4767.94
665.339	4759.13
665.39	4728.98
665.442	4781.9
665.493	4741.98
665.545	4763.89
665.596	4767.78
665.648	4696.51
665.699	4751.86
665.751	4743.28
665.802	4741.19
665.854	4767.49
665.906	4769.47
665.957	4744.74
666.009	4767.96
666.06	4736.58
666.112	4760.5
666.163	4724.86
666.215	4729.32
666.266	4700.37
666.318	4723.55
666.37	4745.63
666.421	4758.91
666.473	4772.29
666.524	4766.36
666.576	4734.29
666.627	4755.65
666.679	4752.91
666.73	4739.98
666.782	4718.52
666.833	4739.39
666.885	4774.99
666.937	4749.88
666.988	4730.82
667.04	4733.9
667.091	4743.72
667.143	4753.45
667.194	4740.04
667.246	4736.58
667.297	4725.63
667.349	4729.74
667.4	4756.84
667.452	4768.68
667.503	4754.14
667.555	4757.52
667.607	4732.39
667.658	4743.88
667.71	4733.48
667.761	4738.75
667.813	4742.31
667.864	4719.31
667.916	4725.86
667.967	4736.48
668.019	4774.11
668.07	4774.53
668.122	4769.35
668.173	4743.73
668.225	4697.55
668.276	4757.44
668.328	4715.92
668.379	4727.52
668.431	4722.72
668.482	4753.76
668.534	4737.16
668.586	4744.22
668.637	4727.07
668.689	4696.59
668.74	4690.25
668.792	4777.88
668.843	4753.71
668.895	4734.94
668.935	4748
668.987	4744
669.038	4761
669.09	4693
669.142	4706
669.194	4696
669.245	4742
669.297	4743
669.349	4731
669.401	4719
669.453	4680
669.504	4656
669.556	4714
669.608	4771
669.66	4731
669.711	4691
669.763	4739
669.815	4694
669.867	4790
669.918	4662
669.97	4684
670.022	4679
670.074	4695
670.125	4699
670.177	4731
670.229	4755
670.281	4688
670.332	4701
670.384	4740
670.436	4735
670.488	4715
670.539	4738
670.591	4724
670.643	4676
670.695	4675
670.747	4718
670.798	4713
670.85	4715
670.902	4778
670.953	4676
671.005	4699
671.057	4739
671.109	4806
671.161	4758
671.212	4724
671.264	4661
671.316	4741
671.367	4741
671.419	4705
671.471	4704
671.523	4732
671.575	4751
671.626	4693
671.678	4723
671.73	4680
671.781	4718
671.833	4727
671.885	4743
671.937	4740
671.988	4731
672.04	4752
672.092	4735
672.144	4703
672.195	4682
672.247	4709
672.299	4740
672.351	4736
672.402	4745
672.454	4731
672.506	4788
672.558	4773
672.609	4747
672.661	4735
672.713	4737
672.765	4737
672.816	4716
672.868	4717
672.92	4753
672.971	4801
673.023	4806
673.075	4762
673.127	4788
673.178	4781
673.23	4816
673.282	4735
673.334	4810
673.385	4862
673.437	4840
673.489	4841
673.54	4859
673.592	4794
673.644	4823
673.696	4798
673.747	4820
673.799	4780
673.851	4805
673.903	4796
673.954	4843
674.006	4841
674.058	4813
674.109	4879
674.161	4945
674.213	4859
674.265	4899
674.316	4872
674.368	4866
674.42	4898
674.471	4856
674.523	4899
674.575	4839
674.627	4939
674.678	4884
674.73	4936
674.782	4944
674.833	4926
674.885	4949
674.937	4920
674.989	4932
675.04	4911
675.092	4990
675.144	4921
675.195	4894
675.247	4940
675.299	4963
675.351	4949
675.402	4935
675.454	4951
675.506	4916
675.557	5020
675.609	5004
675.661	4945
675.713	4979
675.764	5020
675.816	5033
675.868	4952
675.919	5018
675.971	5024
676.023	5043
676.074	4988
676.126	5009
676.178	4968
676.23	4945
676.281	5004
676.333	5008
676.385	5039
676.436	4978
676.488	4996
676.54	4974
676.591	5002
676.643	5044
676.695	5026
676.747	5059
676.798	5107
676.85	4997
676.902	5052
676.953	5028
677.005	5049
677.057	5076
677.108	5016
677.16	5071
677.212	5023
677.263	5066
677.315	4991
677.367	4994
677.419	5067
677.47	5059
677.522	5088
677.574	5040
677.625	5103
677.677	5042
677.729	5060
677.78	5064
677.832	5072
677.884	5020
677.935	5136
677.987	5090
678.039	5032
678.091	5063
678.142	5012
678.194	5091
678.246	5024
678.297	4986
678.349	5050
678.401	5008
678.452	5064
678.504	5049
678.556	5026
678.607	5054
678.659	5022
678.711	5047
678.762	5096
678.814	5016
678.866	5064
678.917	5059
678.969	5058
679.021	5060
679.072	5028
679.124	5093
679.176	5055
679.227	5041
679.279	5067
679.331	5044
679.382	5090
679.434	5081
679.486	5068
679.537	5108
679.589	5047
679.641	5115
679.692	5118
679.744	5064
679.796	5085
679.847	5097
679.899	5091
679.951	5112
680.003	5154
680.054	5089
680.106	5126
680.157	5179
680.209	5124
680.261	5095
680.312	5161
680.364	5164
680.416	5105
680.467	5101
680.519	5130
680.571	5149
680.622	5077
680.674	5133
680.726	5109
680.777	5127
680.829	5140
680.881	5179
680.932	5103
680.984	5198
681.036	5144
681.087	5156
681.139	5187
681.191	5160
681.242	5117
681.294	5197
681.346	5139
681.397	5200
681.449	5229
681.501	5200
681.552	5198
681.604	5206
681.656	5184
681.707	5264
681.759	5157
681.81	5203
681.862	5158
681.914	5217
681.965	5196
682.017	5279
682.069	5215
682.12	5204
682.172	5166
682.224	5217
682.275	5197
682.327	5191
682.379	5281
682.43	5209
682.482	5267
682.533	5323
682.585	5194
682.637	5205
682.688	5314
682.74	5274
682.792	5204
682.843	5196
682.895	5233
682.947	5203
682.998	5248
683.05	5250
683.102	5251
683.153	5234
683.205	5218
683.256	5255
683.308	5262
683.36	5260
683.411	5291
683.463	5241
683.515	5255
683.566	5298
683.618	5256
683.669	5198
683.721	5277
683.773	5240
683.824	5315
683.876	5267
683.928	5335
683.979	5214
684.031	5245
684.082	5268
684.134	5264
684.186	5245
684.237	5263
684.289	5259
684.341	5268
684.392	5282
684.444	5214
684.495	5268
684.547	5309
684.599	5255
684.65	5295
684.702	5233
684.754	5229
684.805	5218
684.857	5264
684.908	5180
684.96	5163
685.012	5181
685.063	5203
685.115	5192
685.166	5228
685.218	5245
685.27	5282
685.321	5273
685.373	5244
685.424	5185
685.476	5222
685.528	5231
685.579	5215
685.631	5261
685.683	5210
685.734	5211
685.786	5215
685.837	5239
685.889	5199
685.941	5171
685.992	5168
686.044	5205
686.095	5187
686.147	5184
686.199	5221
686.25	5178
686.302	5157
686.353	5215
686.405	5093
686.457	5216
686.508	5104
686.56	5108
686.611	5215
686.663	5191
686.715	5113
686.766	5170
686.818	5153
686.869	5201
686.921	5169
686.973	5176
687.024	5112
687.076	5207
687.127	5189
687.179	5159
687.231	5183
687.282	5125
687.334	5124
687.385	5151
687.437	5219
687.489	5149
687.54	5128
687.592	5167
687.643	5159
687.695	5137
687.747	5121
687.798	5076
687.85	5138
687.901	5150
687.953	5148
688.004	5177
688.056	5145
688.108	5181
688.159	5144
688.211	5166
688.262	5190
688.314	5169
688.366	5071
688.417	5139
688.469	5176
688.52	5135
688.572	5111
688.623	5171
688.675	5130
688.727	5132
688.778	5082
688.83	5161
688.881	5149
688.933	5164
688.984	5096
689.036	5069
689.088	5093
689.139	5149
689.191	5086
689.242	5154
689.294	5175
689.346	5138
689.397	5076
689.449	5071
689.5	5170
689.552	5107
689.603	5138
689.655	5164
689.706	5103
689.758	5155
689.81	5103
689.861	5123
689.913	5130
689.964	5098
690.016	5052
690.067	5104
690.119	5054
690.171	5099
690.222	5031
690.274	5093
690.325	5036
690.377	5015
690.428	5115
690.48	5063
690.531	5070
690.583	5104
690.635	5066
690.686	4976
690.738	5136
690.789	5022
690.841	5019
690.892	5092
690.944	5057
690.996	5032
691.047	5096
691.099	5002
691.15	5064
691.202	5049
691.253	5021
691.305	5047
691.356	5046
691.408	5046
691.459	4997
691.511	4974
691.563	5007
691.614	4994
691.666	5037
691.717	4973
691.769	5037
691.82	5008
691.872	4938
691.923	4990
691.975	5028
692.026	5007
692.078	5005
692.13	4981
692.181	5016
692.233	4920
692.284	4956
692.336	4945
692.387	4991
692.439	4938
692.49	5010
692.542	4965
692.593	4931
692.645	4957
692.697	4944
692.748	4934
692.8	4893
692.851	4954
692.903	4863
692.954	4939
693.006	4971
693.057	4974
693.109	4955
693.16	4918
693.212	4887
693.263	4956
693.315	4856
693.366	4890
693.418	4829
693.47	4897
693.521	4898
693.573	4930
693.624	5007
693.676	4932
693.727	4902
693.779	4956
693.83	4889
693.882	4899
693.933	4883
693.985	4878
694.036	4896
694.088	4881
694.139	4901
694.191	4885
694.242	4847
694.294	4861
694.345	4850
694.397	4915
694.448	4896
694.5	4845
694.552	4884
694.603	4891
694.655	4872
694.706	4864
694.758	4861
694.809	4918
694.861	4891
694.912	4822
694.964	4843
695.015	4846
695.067	4855
695.118	4858
695.17	4867
695.221	4871
695.273	4872
695.324	4861
695.376	4879
695.427	4866
695.479	4770
695.53	4889
695.582	4841
695.633	4811
695.685	4867
695.736	4851
695.788	4816
695.839	4841
695.891	4788
695.942	4824
695.994	4828
696.045	4806
696.097	4825
696.148	4805
696.2	4839
696.251	4791
696.303	4815
696.354	4794
696.406	4752
696.457	4807
696.509	4869
696.56	4794
696.612	4823
696.663	4802
696.715	4736
696.766	4780
696.818	4746
696.869	4807
696.921	4692
696.972	4758
697.024	4776
697.075	4772
697.127	4757
697.178	4723
697.23	4759
697.281	4756
697.333	4782
697.384	4752
697.436	4793
697.487	4775
697.539	4713
697.59	4774
697.642	4695
697.693	4763
697.745	4737
697.796	4664
697.847	4658
697.899	4669
697.95	4754
698.002	4727
698.053	4726
698.105	4690
698.156	4715
698.208	4681
698.259	4652
698.311	4684
698.362	4648
698.414	4621
698.465	4686
698.517	4692
698.568	4634
698.62	4653
698.671	4674
698.723	4651
698.774	4620
698.826	4649
698.877	4628
698.928	4630
698.98	4700
699.031	4583
699.083	4656
699.134	4593
699.186	4630
699.237	4681
699.289	4611
699.34	4580
699.392	4599
699.443	4611
699.495	4598
699.546	4580
699.598	4606
699.649	4598
699.7	4561
699.752	4583
699.803	4571
699.855	4595
699.906	4552
699.958	4585
700.009	4551
700.061	4552
700.112	4646
700.164	4593
700.215	4593
700.266	4571
700.318	4600
700.369	4627
700.421	4573
700.472	4595
700.524	4532
700.575	4549
700.627	4557
700.678	4593
700.73	4525
700.781	4594
700.832	4574
700.884	4553
700.935	4633
700.987	4505
701.038	4495
701.09	4451
701.141	4551
701.193	4564
701.244	4545
701.295	4562
701.347	4503
701.398	4565
701.45	4544
701.501	4500
701.553	4544
701.604	4575
701.656	4576
701.707	4547
701.758	4520
701.81	4517
701.861	4525
701.913	4561
701.964	4555
702.016	4562
702.067	4510
702.119	4484
702.17	4557
702.221	4550
702.273	4571
702.324	4549
702.376	4579
702.427	4643
702.479	4529
702.53	4591
702.581	4543
702.633	4546
702.684	4566
702.736	4551
702.787	4490
702.839	4564
702.89	4524
702.941	4519
702.993	4519
703.044	4637
703.096	4606
703.147	4571
703.199	4531
703.25	4568
703.301	4583
703.353	4551
703.404	4547
703.456	4528
703.507	4549
703.558	4549
703.61	4528
703.661	4566
703.713	4578
703.764	4511
703.816	4560
703.867	4562
703.918	4545
703.97	4528
704.021	4555
704.073	4575
704.124	4537
704.175	4549
704.227	4548
704.278	4500
704.33	4527
704.381	4529
704.432	4525
704.484	4519
704.535	4465
704.587	4522
704.638	4475
704.69	4476
704.741	4523
704.792	4502
704.844	4470
704.895	4473
704.947	4516
704.998	4474
705.049	4479
705.101	4503
705.152	4468
705.204	4529
705.255	4474
705.306	4425
705.358	4451
705.409	4436
705.461	4445
705.512	4384
705.563	4394
705.615	4403
705.666	4435
705.718	4439
705.769	4414
705.82	4437
705.872	4422
705.923	4440
705.974	4442
706.026	4400
706.077	4437
706.129	4401
706.18	4437
706.231	4361
706.283	4387
706.334	4402
706.386	4388
706.437	4389
706.488	4404
706.54	4358
706.591	4406
706.643	4388
706.694	4416
706.745	4358
706.797	4362
706.848	4356
706.899	4300
706.951	4355
707.002	4289
707.054	4317
707.105	4362
707.156	4339
707.208	4286
707.259	4337
707.31	4281
707.362	4297
707.413	4312
707.465	4254
707.516	4323
707.567	4312
707.619	4287
707.67	4319
707.721	4278
707.773	4337
707.824	4261
707.876	4301
707.927	4332
707.978	4300
708.03	4287
708.081	4287
708.132	4266
708.184	4316
708.235	4281
708.287	4302
708.338	4189
708.389	4301
708.441	4225
708.492	4241
708.543	4258
708.595	4308
708.646	4197
708.697	4267
708.749	4240
708.8	4305
708.852	4343
708.903	4213
708.954	4308
709.006	4272
709.057	4268
709.108	4285
709.16	4271
709.211	4228
709.262	4225
709.314	4236
709.365	4230
709.416	4262
709.468	4172
709.519	4202
709.57	4251
709.622	4208
709.673	4226
709.725	4186
709.776	4235
709.827	4211
709.879	4206
709.93	4152
709.981	4182
710.033	4245
710.084	4274
710.135	4209
710.187	4274
710.238	4194
710.289	4206
710.341	4173
710.392	4197
710.443	4202
710.495	4205
710.546	4260
710.597	4207
710.649	4246
710.7	4172
710.751	4199
710.803	4179
710.854	4173
710.905	4150
710.957	4169
711.008	4156
711.059	4185
711.111	4150
711.162	4205
711.213	4190
711.265	4153.62
711.316	4214.36
711.367	4165
711.419	4175.13
711.47	4186.4
711.521	4183.78
711.573	4184.51
711.624	4130.37
711.675	4113.27
711.727	4135.97
711.778	4103.38
711.829	4127.46
711.881	4160.14
711.932	4133.13
711.983	4055.93
712.035	4112.96
712.086	4141.72
712.137	4100.83
712.189	4115.95
712.24	4077.6
712.291	4142.48
712.343	4127.8
712.394	4103
712.445	4100.02
712.496	4116.28
712.548	4088.92
712.599	4102.44
712.65	4077.29
712.702	4105.24
712.753	4120.21
712.804	4063.71
712.856	4035.99
712.907	4048.21
712.958	4061.74
713.01	4066.49
713.061	4085.47
713.112	4041.91
713.164	3998.99
713.215	4066.73
713.266	4047.45
713.317	4036.5
713.369	4009.82
713.42	4019.1
713.471	4038.68
713.523	4029.09
713.574	4023.39
713.625	4000.34
713.677	3993.52
713.728	3985.84
713.779	4004.47
713.831	4023.92
713.882	3986.13
713.933	3989.96
713.984	3962.58
714.036	4005.15
714.087	3993.87
714.138	3983.74
714.19	3912.21
714.241	3959.3
714.292	3959.04
714.343	3956.57
714.395	3947.36
714.446	3942.9
714.497	3940.71
714.549	3942.22
714.6	3909.83
714.651	3953.92
714.703	3943.73
714.754	3924.12
714.805	3919.94
714.856	3919.5
714.908	3927.12
714.959	3926.25
715.01	3931.55
715.062	3893.04
715.113	3890.89
715.164	3896.89
715.215	3872.38
715.267	3864.14
715.318	3866.59
715.369	3873.38
715.421	3859.32
715.472	3876.42
715.523	3880.06
715.574	3871.09
715.626	3869.22
715.677	3886.11
715.728	3894.63
715.779	3872.74
715.831	3845.66
715.882	3845.76
715.933	3855.79
715.985	3845.11
716.036	3834.56
716.087	3831.89
716.138	3849.35
716.19	3809.21
716.241	3827.69
716.292	3825.44
716.343	3832.64
716.395	3827.44
716.433	3825
716.485	3812
716.536	3781
716.588	3785
716.639	3827
716.691	3769
716.742	3879
716.794	3778
716.845	3741
716.897	3791
716.948	3789
717	3773
717.052	3801
717.103	3796
717.155	3742
717.206	3793
717.258	3712
717.309	3814
717.361	3766
717.412	3765
717.464	3743
717.515	3737
717.567	3781
717.618	3759
717.67	3713
717.721	3712
717.773	3675
717.824	3776
717.876	3733
717.927	3715
717.979	3703
718.03	3703
718.082	3752
718.133	3699
718.185	3726
718.237	3706
718.288	3649
718.34	3738
718.391	3720
718.443	3734
718.494	3665
718.546	3686
718.597	3697
718.649	3728
718.7	3661
718.752	3706
718.803	3634
718.855	3672
718.906	3693
718.958	3702
719.009	3692
719.061	3641
719.112	3677
719.164	3661
719.215	3654
719.267	3626
719.318	3700
719.37	3681
719.421	3662
719.473	3607
719.524	3689
719.576	3616
719.627	3679
719.679	3642
719.73	3653
719.782	3585
719.833	3585
719.885	3633
719.936	3621
719.988	3583
720.039	3615
720.091	3581
720.142	3610
720.194	3593
720.245	3572
720.297	3631
720.348	3627
720.4	3561
720.451	3608
720.503	3523
720.554	3550
720.606	3532
720.657	3608
720.709	3529
720.76	3549
720.812	3566
720.863	3553
720.915	3539
720.966	3558
721.018	3533
721.069	3521
721.121	3534
721.172	3526
721.224	3498
721.275	3489
721.327	3489
721.378	3516
721.43	3492
721.481	3499
721.532	3527
721.584	3431
721.635	3474
721.687	3514
721.738	3464
721.79	3474
721.841	3501
721.893	3416
721.944	3443
721.996	3527
722.047	3460
722.099	3437
722.15	3475
722.202	3410
722.253	3462
722.305	3434
722.356	3431
722.408	3432
722.459	3464
722.511	3450
722.562	3387
722.614	3425
722.665	3392
722.716	3409
722.768	3434
722.819	3467
722.871	3466
722.922	3444
722.974	3420
723.025	3354
723.077	3340
723.128	3365
723.18	3342
723.231	3372
723.283	3411
723.334	3357
723.386	3315
723.437	3374
723.488	3374
723.54	3379
723.591	3362
723.643	3362
723.694	3345
723.746	3377
723.797	3370
723.849	3319
723.9	3356
723.952	3353
724.003	3319
724.055	3304
724.106	3308
724.157	3348
724.209	3309
724.26	3315
724.312	3277
724.363	3290
724.415	3299
724.466	3314
724.518	3345
724.569	3362
724.621	3285
724.672	3225
724.723	3270
724.775	3284
724.826	3293
724.878	3248
724.929	3307
724.981	3296
725.032	3312
725.084	3223
725.135	3259
725.187	3192
725.238	3271
725.289	3205
725.341	3304
725.392	3291
725.444	3297
725.495	3255
725.547	3236
725.598	3274
725.65	3251
725.701	3209
725.752	3237
725.804	3267
725.855	3227
725.907	3156
725.958	3243
726.01	3232
726.061	3232
726.112	3202
726.164	3216
726.215	3190
726.267	3226
726.318	3290
726.37	3196
726.421	3209
726.473	3227
726.524	3165
726.575	3193
726.627	3188
726.678	3173
726.73	3164
726.781	3180
726.833	3139
726.884	3198
726.935	3180
726.987	3159
727.038	3116
727.09	3170
727.141	3215
727.193	3170
727.244	3175
727.295	3148
727.347	3155
727.398	3094
727.45	3125
727.501	3122
727.552	3118
727.604	3092
727.655	3123
727.707	3067
727.758	3066
727.81	3140
727.861	3117
727.912	3080
727.964	3132
728.015	3096
728.067	3061
728.118	3068
728.17	3110
728.221	3101
728.272	3035
728.324	3045
728.375	3081
728.427	3039
728.478	3091
728.529	3057
728.581	3015
728.632	3046
728.684	3055
728.735	3012
728.786	3059
728.838	3035
728.889	2996
728.941	3030
728.992	3004
729.044	2986
729.095	2963
729.146	3045
729.198	2960
729.249	3020
729.301	2931
729.352	2936
729.403	2973
729.455	2967
729.506	2991
729.558	2940
729.609	2933
729.66	2908
729.712	2938
729.763	2915
729.815	2895
729.866	2862
729.917	2913
729.969	2962
730.02	2913
730.072	2898
730.123	2919
730.174	2914
730.226	2930
730.277	2904
730.329	2897
730.38	2878
730.431	2956
730.483	2897
730.534	2901
730.586	2906
730.637	2853
730.688	2868
730.74	2859
730.791	2857
730.842	2887
730.894	2870
730.945	2864
730.997	2837
731.048	2897
731.099	2850
731.151	2907
731.202	2839
731.254	2853
731.305	2873
731.356	2811
731.408	2817
731.459	2806
731.51	2863
731.562	2831
731.613	2861
731.665	2859
731.716	2834
731.767	2832
731.819	2821
731.87	2802
731.922	2813
731.973	2810
732.024	2800
732.076	2830
732.127	2809
732.178	2814
732.23	2786
732.281	2794
732.333	2771
732.384	2815
732.435	2833
732.487	2779
732.538	2790
732.589	2791
732.641	2753
732.692	2821
732.744	2810
732.795	2797
732.846	2794
732.898	2753
732.949	2790
733	2722
733.052	2764
733.103	2820
733.154	2774
733.206	2803
733.257	2748
733.309	2752
733.36	2762
733.411	2739
733.463	2736
733.514	2732
733.565	2712
733.617	2788
733.668	2737
733.719	2742
733.771	2740
733.822	2729
733.873	2702
733.925	2759
733.976	2763
734.028	2733
734.079	2729
734.13	2739
734.182	2728
734.233	2725
734.284	2740
734.336	2697
734.387	2752
734.438	2709
734.49	2692
734.541	2698
734.592	2748
734.644	2716
734.695	2754
734.747	2731
734.798	2684
734.849	2730
734.901	2745
734.952	2751
735.003	2748
735.055	2716
735.106	2702
735.157	2722
735.209	2713
735.26	2698
735.311	2716
735.363	2677
735.414	2669
735.465	2721
735.517	2745
735.568	2677
735.619	2681
735.671	2699
735.722	2683
735.773	2713
735.825	2633
735.876	2668
735.927	2690
735.979	2684
736.03	2673
736.081	2699
736.133	2667
736.184	2683
736.235	2667
736.287	2689
736.338	2665
736.389	2665
736.441	2691
736.492	2707
736.543	2710
736.595	2650
736.646	2703
736.697	2671
736.749	2667
736.8	2654
736.851	2683
736.903	2680
736.954	2665
737.005	2663
737.057	2664
737.108	2692
737.159	2697
737.211	2673
737.262	2699
737.313	2672
737.365	2724
737.416	2649
737.467	2694
737.518	2674
737.57	2666
737.621	2691
737.672	2654
737.724	2677
737.775	2701
737.826	2684
737.878	2668
737.929	2671
737.98	2667
738.032	2668
738.083	2681
738.134	2681
738.186	2689
738.237	2695
738.288	2670
738.339	2655
738.391	2664
738.442	2649
738.493	2723
738.545	2651
738.596	2666
738.647	2718
738.699	2698
738.75	2718
738.801	2674
738.853	2635
738.904	2660
738.955	2640
739.006	2646
739.058	2634
739.109	2628
739.16	2654
739.212	2621
739.263	2611
739.314	2599
739.366	2594
739.417	2633
739.468	2632
739.519	2659
739.571	2639
739.622	2613
739.673	2605
739.725	2625
739.776	2632
739.827	2615
739.878	2590
739.93	2593
739.981	2607
740.032	2591
740.084	2595
740.135	2572
740.186	2558
740.237	2574
740.289	2575
740.34	2602
740.391	2584
740.443	2583
740.494	2531
740.545	2535
740.596	2569
740.648	2579
740.699	2545
740.75	2532
740.802	2533
740.853	2532
740.904	2566
740.956	2551
741.007	2603
741.058	2532
741.109	2538
741.161	2590
741.212	2521
741.263	2547
741.314	2528
741.366	2567
741.417	2523
741.468	2556
741.52	2512
741.571	2550
741.622	2506
741.673	2541
741.725	2471
741.776	2510
741.827	2520
741.878	2504
741.93	2498
741.981	2490
742.032	2454
742.083	2536
742.135	2474
742.186	2472
742.237	2427
742.289	2467
742.34	2489
742.391	2434
742.442	2513
742.494	2464
742.545	2486
742.596	2462
742.647	2458
742.699	2474
742.75	2456
742.801	2457
742.852	2487
742.904	2455
742.955	2463
743.006	2480
743.057	2426
743.109	2426
743.16	2431
743.211	2428
743.263	2419
743.314	2412
743.365	2389
743.416	2419
743.468	2392
743.519	2403
743.57	2411
743.621	2445
743.672	2408
743.724	2374
743.775	2374
743.826	2436
743.878	2391
743.929	2396
743.98	2364
744.031	2418
744.083	2412
744.134	2373
744.185	2445
744.236	2380
744.287	2388
744.339	2364
744.39	2386
744.441	2359
744.492	2393
744.544	2336
744.595	2429
744.646	2372
744.697	2323
744.749	2383
744.8	2340
744.851	2343
744.902	2350
744.954	2342
745.005	2383
745.056	2344
745.107	2351
745.159	2359
745.21	2316
745.261	2325
745.312	2344
745.363	2371
745.415	2288
745.466	2302
745.517	2342
745.568	2306
745.62	2350
745.671	2345
745.722	2336
745.773	2351
745.824	2327
745.876	2348
745.927	2330
745.978	2344
746.029	2299
746.081	2301
746.132	2331
746.183	2299
746.234	2307
746.285	2301
746.337	2307
746.388	2312
746.439	2302
746.49	2297
746.542	2256
746.593	2294
746.644	2305
746.695	2249
746.746	2304
746.798	2250
746.849	2332
746.9	2272
746.951	2263
747.003	2301
747.054	2264
747.105	2276
747.156	2289
747.207	2256
747.259	2263
747.31	2281
747.361	2278
747.412	2254
747.463	2287
747.515	2278
747.566	2281
747.617	2288
747.668	2232
747.719	2246
747.771	2232
747.822	2263
747.873	2238
747.924	2244
747.975	2269
748.027	2244
748.078	2252
748.129	2262
748.18	2216
748.231	2239
748.283	2247
748.334	2262
748.385	2271
748.436	2239
748.487	2239
748.539	2193
748.59	2263
748.641	2239
748.692	2252
748.743	2220
748.795	2194
748.846	2218
748.897	2204
748.948	2188
748.999	2232
749.05	2175
749.102	2203
749.153	2208
749.204	2251
749.255	2227
749.306	2213
749.358	2187
749.409	2223
749.46	2224
749.511	2175
749.562	2189
749.614	2202
749.665	2194
749.716	2188
749.767	2175
749.818	2121
749.869	2164
749.921	2156
749.972	2194
750.023	2171
750.074	2206
750.125	2162
750.177	2185
750.228	2182
750.279	2166
750.33	2182
750.381	2202
750.432	2145
750.484	2167
750.535	2115
750.586	2171
750.637	2165
750.688	2172
750.739	2122
750.791	2145
750.842	2133
750.893	2104
750.944	2140
750.995	2147
751.046	2113
751.098	2091
751.149	2146
751.2	2141
751.251	2129
751.302	2155
751.353	2120
751.404	2134
751.456	2120
751.507	2110
751.558	2132
751.609	2164
751.66	2150
751.711	2115
751.763	2074
751.814	2124
751.865	2080
751.916	2086
751.967	2068
752.018	2065
752.07	2117
752.121	2113
752.172	2034
752.223	2061
752.274	2076
752.325	2061
752.376	2086
752.428	2107
752.479	2076
752.53	2087
752.581	2108
752.632	2067
752.683	2082
752.734	2056
752.786	2078
752.837	2039
752.888	2025
752.939	2064
752.99	2026
753.041	2074
753.092	2034
753.144	2042
753.195	2042
753.246	2046
753.297	2016
753.348	2032
753.399	2017
753.45	2024
753.502	2031
753.553	2047
753.604	2016
753.655	2033
753.706	2028
753.757	2018
753.808	2010
753.859	2024
753.911	1974
753.962	2002
754.013	2051
754.064	2009
754.115	1971
754.166	1987
754.217	2008
754.269	1983
754.32	1999
754.371	1981
754.422	1956
754.473	1992
754.524	1981
754.575	1959
754.626	1948
754.678	1949
754.729	1987
754.78	1997
754.831	1962
754.882	1985
754.933	1980
754.984	1949
755.035	1956
755.086	1955
755.138	1985
755.189	1972
755.24	1936
755.291	1964
755.342	1947
755.393	1974
755.444	1959
755.495	1948
755.547	1946
755.598	1923
755.649	1884
755.7	1947
755.751	1901
755.802	1928
755.853	1954
755.904	1907
755.955	1909
756.006	1938
756.058	1898
756.109	1924
756.16	1944
756.211	1901
756.262	1894
756.313	1899
756.364	1900
756.415	1892
756.466	1910
756.518	1891
756.569	1892
756.62	1910
756.671	1881
756.722	1925
756.773	1886
756.824	1890
756.875	1863
756.926	1889
756.977	1886
757.029	1887
757.08	1892
757.131	1875
757.182	1881
757.233	1886
757.284	1888
757.335	1893
757.386	1870
757.437	1886
757.488	1911
757.539	1878
757.59	1901
757.642	1851
757.693	1874
757.744	1889
757.795	1879
757.846	1850
757.897	1838
757.948	1798
757.999	1829
758.05	1822
758.101	1870
758.152	1874
758.203	1840
758.255	1855
758.306	1842
758.357	1841
758.408	1834
758.459	1811
758.51	1843.02
758.561	1814.28
758.612	1807.62
758.663	1856.29
758.714	1840.24
758.765	1810.89
758.816	1810.71
758.867	1809.27
758.919	1794.23
758.97	1826.88
759.021	1844.55
759.072	1845.27
759.123	1829.39
759.174	1794.27
759.225	1814.09
759.276	1811.53
759.327	1826.39
759.378	1838.9
759.429	1769.75
759.48	1790.96
759.531	1778.45
759.582	1796.77
759.633	1777.38
759.685	1784.2
759.736	1796.27
759.787	1782.61
759.838	1770.87
759.889	1784.95
759.94	1750.71
759.991	1773.09
760.042	1779.05
760.093	1745.12
760.144	1765.77
760.195	1773.42
760.246	1765.92
760.297	1737.56
760.348	1753.36
760.399	1734.16
760.45	1766.03
760.501	1736.49
760.552	1765.86
760.603	1743.5
760.655	1732.33
760.706	1729.19
760.757	1736.87
760.808	1745.22
760.859	1743.51
760.91	1734.62
760.961	1741.28
761.012	1736.1
761.063	1740.32
761.114	1738.49
761.165	1737.79
761.216	1711.67
761.267	1711.13
761.318	1710.66
761.369	1717.14
761.42	1703.98
761.471	1715.16
761.522	1724.1
761.573	1702.98
761.624	1719.8
761.675	1698.14
761.726	1720.26
761.777	1724.65
761.828	1703.39
761.88	1711.62
761.931	1695.36
761.982	1714.81
762.033	1699.05
762.084	1691.59
762.135	1727.29
762.186	1686.62
762.237	1672.28
762.288	1686.3
762.339	1688.7
762.39	1695.33
762.441	1672.69
762.492	1686.76
762.543	1649.55
762.594	1677.11
762.645	1665.2
762.696	1663.67
762.747	1692.59
762.798	1657.11
762.849	1647.33
762.9	1650.75
762.951	1656.25
763.002	1643.23
763.053	1635.48
763.104	1663.01
763.155	1636.48
763.206	1629.25
763.257	1632.7
763.308	1636.24
763.359	1634.15
763.41	1669.63
763.461	1633.49
763.512	1646.36
763.563	1664.82
763.614	1642.03
763.665	1612.95
763.678	1606
763.729	1621
763.78	1662
763.832	1609
763.883	1624
763.934	1563
763.986	1591
764.037	1616
764.088	1628
764.139	1615
764.191	1650
764.242	1626
764.293	1609
764.345	1619
764.396	1609
764.447	1583
764.498	1574
764.55	1611
764.601	1591
764.652	1623
764.704	1594
764.755	1569
764.806	1583
764.857	1584
764.909	1630
764.96	1606
765.011	1582
765.062	1586
765.114	1557
765.165	1600
765.216	1571
765.268	1616
765.319	1560
765.37	1545
765.421	1560
765.473	1593
765.524	1595
765.575	1546
765.626	1550
765.678	1566
765.729	1566
765.78	1569
765.831	1541
765.883	1572
765.934	1569
765.985	1541
766.036	1547
766.088	1548
766.139	1550
766.19	1536
766.242	1548
766.293	1519
766.344	1538
766.395	1545
766.447	1526
766.498	1528
766.549	1491
766.6	1528
766.652	1506
766.703	1524
766.754	1530
766.805	1542
766.857	1514
766.908	1545
766.959	1532
767.01	1516
767.062	1490
767.113	1537
767.164	1493
767.215	1510
767.267	1500
767.318	1501
767.369	1509
767.42	1513
767.472	1495
767.523	1484
767.574	1482
767.625	1504
767.677	1487
767.728	1489
767.779	1500
767.83	1480
767.882	1471
767.933	1434
767.984	1450
768.035	1461
768.087	1488
768.138	1471
768.189	1464
768.24	1512
768.292	1465
768.343	1490
768.394	1463
768.445	1502
768.497	1440
768.548	1421
768.599	1424
768.65	1451
768.701	1460
768.753	1440
768.804	1432
768.855	1454
768.906	1435
768.958	1465
769.009	1450
769.06	1402
769.111	1435
769.163	1415
769.214	1419
769.265	1433
769.316	1444
769.367	1435
769.419	1434
769.47	1424
769.521	1390
769.572	1441
769.624	1410
769.675	1386
769.726	1408
769.777	1415
769.828	1409
769.88	1373
769.931	1402
769.982	1390
770.033	1398
770.085	1363
770.136	1403
770.187	1352
770.238	1377
770.289	1361
770.341	1382
770.392	1419
770.443	1361
770.494	1424
770.546	1384
770.597	1387
770.648	1360
770.699	1425
770.75	1384
770.802	1361
770.853	1352
770.904	1376
770.955	1381
771.006	1373
771.058	1358
771.109	1356
771.16	1364
771.211	1363
771.263	1352
771.314	1386
771.365	1374
771.416	1369
771.467	1340
771.519	1318
771.57	1334
771.621	1353
771.672	1321
771.723	1306
771.775	1325
771.826	1346
771.877	1353
771.928	1362
771.979	1325
772.031	1305
772.082	1350
772.133	1339
772.184	1343
772.235	1320
772.287	1320
772.338	1319
772.389	1322
772.44	1306
772.491	1307
772.543	1294
772.594	1310
772.645	1281
772.696	1280
772.747	1304
772.799	1281
772.85	1251
772.901	1296
772.952	1277
773.003	1282
773.055	1281
773.106	1321
773.157	1287
773.208	1252
773.259	1301
773.31	1294
773.362	1313
773.413	1295
773.464	1266
773.515	1292
773.566	1275
773.618	1279
773.669	1270
773.72	1278
773.771	1283
773.822	1279
773.873	1280
773.925	1274
773.976	1283
774.027	1288
774.078	1241
774.129	1277
774.18	1247
774.232	1278
774.283	1262
774.334	1239
774.385	1246
774.436	1249
774.488	1263
774.539	1220
774.59	1249
774.641	1261
774.692	1247
774.743	1269
774.795	1231
774.846	1259
774.897	1258
774.948	1249
774.999	1240
775.05	1220
775.102	1225
775.153	1236
775.204	1229
775.255	1238
775.306	1229
775.357	1214
775.409	1231
775.46	1177
775.511	1252
775.562	1204
775.613	1236
775.664	1211
775.716	1200
775.767	1226
775.818	1198
775.869	1184
775.92	1185
775.971	1217
776.023	1187
776.074	1187
776.125	1194
776.176	1209
776.227	1193
776.278	1158
776.329	1168
776.381	1205
776.432	1205
776.483	1166
776.534	1185
776.585	1171
776.636	1178
776.688	1185
776.739	1166
776.79	1170
776.841	1166
776.892	1188
776.943	1175
776.994	1168
777.046	1185
777.097	1164
777.148	1182
777.199	1131
777.25	1122
777.301	1186
777.352	1160
777.404	1160
777.455	1159
777.506	1155
777.557	1130
777.608	1160
777.659	1152
777.71	1124
777.762	1150
777.813	1161
777.864	1133
777.915	1154
777.966	1142
778.017	1129
778.068	1155
778.12	1119
778.171	1153
778.222	1124
778.273	1133
778.324	1093
778.375	1100
778.426	1087
778.477	1119
778.529	1088
778.58	1098
778.631	1144
778.682	1100
778.733	1073
778.784	1141
778.835	1096
778.886	1113
778.938	1114
778.989	1124
779.04	1094
779.091	1096
779.142	1100
779.193	1126
779.244	1096
779.295	1104
779.347	1127
779.398	1088
779.449	1093
779.5	1102
779.551	1049
779.602	1094
779.653	1099
779.704	1100
779.755	1098
779.807	1081
779.858	1099
779.909	1071
779.96	1064
780.011	1070
780.062	1062
780.113	1066
780.164	1061
780.216	1090
780.267	1060
780.318	1089
780.369	1080
780.42	1077
780.471	1055
780.522	1076
780.573	1065
780.624	1094
780.675	1060
780.727	1046
780.778	1073
780.829	1035
780.88	1073
780.931	1060
780.982	1056
781.033	1068
781.084	1042
781.135	1023
781.187	1077
781.238	1019
781.289	1051
781.34	1070
781.391	1033
781.442	1033
781.493	1045
781.544	1050
781.595	1045
781.646	1020
781.698	1036
781.749	1029
781.8	1021
781.851	1027
781.902	1028
781.953	1022
782.004	1035
782.055	1023
782.106	1027
782.157	1021
782.208	1027
782.26	1023
782.311	1010
782.362	1007
782.413	986
782.464	1020
782.515	1028
782.566	1002
782.617	986
782.668	982
782.719	981
782.77	999
782.821	989
782.872	982
782.924	1009
782.975	983
783.026	995
783.077	996
783.128	982
783.179	1010
783.23	1000
783.281	975
783.332	993
783.383	972
783.434	968
783.485	995
783.536	1002
783.588	983
783.639	987
783.69	962
783.741	980
783.792	986
783.843	971
783.894	979
783.945	954
783.996	959
784.047	950
784.098	964
784.149	948
784.2	991
784.252	960
784.303	989
784.354	954
784.405	975
784.456	952
784.507	949
784.558	931
784.609	938
784.66	951
784.711	968
784.762	960
784.813	942
784.864	941
784.915	929
784.966	953
785.017	928
785.068	927
785.12	922
785.171	935
785.222	930
785.273	967
785.324	929
785.375	921
785.426	957
785.477	923
785.528	948
785.579	905
785.63	940
785.681	933
785.732	940
785.783	922
785.834	904
785.885	943
785.936	918
785.987	912
786.038	904
786.089	923
786.141	897
786.192	898
786.243	926
786.294	893
786.345	897
786.396	897
786.447	906
786.498	878
786.549	905
786.6	905
786.651	899
786.702	883
786.753	894
786.804	902
786.855	899
786.906	897
786.957	874
787.008	896
787.059	874
787.11	878
787.161	901
787.212	880
787.263	893
787.314	865
787.365	881
787.416	892
787.467	879
787.518	855
787.57	877
787.621	851
787.672	878
787.723	892
787.774	862
787.825	885
787.876	870
787.927	858
787.978	836
788.029	843
788.08	870
788.131	873
788.182	859
788.233	841
788.284	862
788.335	863
788.386	841
788.437	854
788.488	853
788.539	864
788.59	858
788.641	839
788.692	848
788.743	822
788.794	837
788.845	840
788.896	842
788.947	815
788.998	855
789.049	840
789.1	844
789.151	837
789.202	828
789.253	836
789.304	842
789.355	803
789.406	822
789.457	784
789.508	834
789.559	836
789.61	834
789.661	825
789.712	834
789.763	836
789.814	800
789.865	829
789.916	817
789.967	798
790.018	826
790.069	796
790.12	809
790.171	807
790.222	813
790.273	825
790.324	806
790.375	825
790.426	780
790.477	811
790.528	797
790.579	852
790.63	808
790.681	799
790.732	807
790.783	802
790.834	828
790.885	835
790.936	794
790.987	809
791.038	775
791.089	777
791.14	811
791.191	777
791.242	759
791.293	807
791.344	780
791.395	781
791.446	781
791.497	762
791.548	798
791.599	798
791.65	798
791.701	763
791.752	760
791.803	778
791.854	800
791.905	778
791.956	755
792.007	762
792.058	765
792.109	774
792.16	761
792.211	786
792.262	763
792.313	768
792.363	769
792.414	762
792.465	771
792.516	763
792.567	766
792.618	766
792.669	777
792.72	737
792.771	767
792.822	745
792.873	751
792.924	731
792.975	749
793.026	736
793.077	732
793.128	747
793.179	751
793.23	754
793.281	772
793.332	770
793.383	761
793.434	739
793.485	768
793.536	741
793.587	744
793.638	752
793.689	735
793.74	730
793.79	752
793.841	722
793.892	720
793.943	741
793.994	747
794.045	754
794.096	706
794.147	752
794.198	724
794.249	730
794.3	722
794.351	718
794.402	723
794.453	735
794.504	717
794.555	724
794.606	723
794.657	710
794.708	711
794.758	735
794.809	718
794.86	701
794.911	701
794.962	716
795.013	692
795.064	712
795.115	696
795.166	705
795.217	705
795.268	685
795.319	701
795.37	695
795.421	693
795.472	701
795.523	700
795.573	690
795.624	709
795.675	701
795.726	695
795.777	695
795.828	693
795.879	680
795.93	708
795.981	691
796.032	705
796.083	684
796.134	674
796.185	693
796.236	685
796.286	683
796.337	677
796.388	712
796.439	684
796.49	664
796.541	695
796.592	685
796.643	689
796.694	662
796.745	687
796.796	685
796.847	679
796.897	648
796.948	683
796.999	660
797.05	671
797.101	672
797.152	664
797.203	664
797.254	678
797.305	684
797.356	669
797.407	653
797.458	660
797.508	659
797.559	660
797.61	682
797.661	644
797.712	658
797.763	641
797.814	667
797.865	651
797.916	660
797.967	652
798.018	648
798.068	646
798.119	639
798.17	653
798.221	654
798.272	631
798.323	635
798.374	657
798.425	658
798.476	662
798.526	659
798.577	649
798.628	625
798.679	641
798.73	638
798.781	645
798.832	635
798.883	630
798.934	633
798.984	631
799.035	642
799.086	639
799.137	627
799.188	636
799.239	639
799.29	636
799.341	602
799.392	631
799.443	640
799.493	608
799.544	614
799.595	630
799.646	616
799.697	620
799.748	640
799.799	615
799.85	613
799.9	621
799.951	628
800.002	617
800.053	606
800.104	606
800.155	611
800.206	614
800.257	626
800.307	621
800.358	618
800.409	618
800.46	623
800.511	598
800.562	608
800.613	620
800.664	617
800.714	609
800.765	630
800.816	602
800.867	601
800.918	603
800.969	607
801.02	584
801.07	582
801.121	617
801.172	588
801.223	606
801.274	576
801.325	586
801.376	578
801.427	581
801.477	608
801.528	576
801.579	573
801.63	593
801.681	603
801.732	590
801.783	594
801.833	593
801.884	581
801.935	582
801.986	592
802.037	575
802.088	578
802.139	597
802.189	573
802.24	582
802.291	574
802.342	570
802.393	577
802.444	565
802.495	587
802.545	561
802.596	567
802.647	566
802.698	581
802.749	552
802.8	576
802.85	572
802.901	575
802.952	566
803.003	562
803.054	575
803.105	571
803.155	573
803.206	550
803.257	552
803.308	551
803.359	560
803.41	549
803.46	556
803.511	556
803.562	552
803.613	575
803.664	537
803.715	551
803.765	541
803.816	561
803.867	560
803.918	551
803.969	559
804.02	546
804.07	523
804.121	547
804.172	541
804.223	549
804.274	543
804.325	557
804.375	541
804.426	536
804.477	534
804.528	540
804.579	540
804.63	553
804.68	527
804.731	547
804.782	545
804.833	527
804.884	552
804.934	530
804.985	529
805.036	523
805.087	555
805.138	521
805.188	521
805.239	555
805.29	536
805.341	549
805.392	523
805.443	530
805.493	534.979
805.544	524.062
805.595	531.014
805.646	542.681
805.697	535.497
805.747	502.626
805.798	517.547
805.849	532.672
805.9	533.963
805.951	521.518
806.001	518.718
806.052	520.751
806.103	520.364
806.154	531.678
806.205	521.378
806.255	520.681
806.306	522.943
806.357	510.421
806.408	523.239
806.459	519.587
806.509	512.256
806.56	510.125
806.611	511.294
806.662	516.93
806.713	520.591
806.763	506.308
806.814	514.151
806.865	516.789
806.916	517.18
806.967	510.532
807.017	517.379
807.068	505.042
807.119	518.131
807.17	506.056
807.22	509.458
807.271	516.545
807.322	489.888
807.373	511.111
807.424	502.607
807.474	501.889
807.525	506.446
807.576	513.609
807.627	495.424
807.678	487.12
807.728	499.742
807.779	491.272
807.83	495.989
807.881	493.585
807.931	501.693
807.982	483.741
808.033	501.619
808.084	487.399
808.135	492.091
808.185	491.257
808.236	494.052
808.287	495.013
808.338	479.381
808.388	488.003
808.439	487.42
808.49	483.779
808.541	484.326
808.591	480.933
808.642	488.247
808.693	485.123
808.744	474.686
808.795	476.475
808.845	485.764
808.896	481.101
808.947	478.855
808.998	465.871
809.048	478.269
809.099	483.359
809.15	483.792
809.201	477.928
809.251	482.161
809.302	478.484
809.353	461.019
809.404	465.028
809.454	479.092
809.505	451.484
809.556	473.591
809.607	466.863
809.658	478.989
809.708	464.121
809.759	472.231
809.81	461.739
809.861	473.732
809.911	484.488
809.962	458.61
810.013	470.138
810.064	477.336
810.114	464.614
810.165	467.37
810.216	459.841
810.267	478.576
810.317	450.751
810.368	452.566
810.419	443.101
810.469	472.671
810.52	469.163
810.571	461.788
810.622	466.41
810.627	467
810.678	472
810.729	463
810.78	457
810.831	436
810.882	451
810.933	453
810.984	467
811.035	451
811.086	445
811.137	455
811.188	464
811.239	451
811.29	449
811.341	443
811.392	450
811.443	448
811.494	461
811.545	446
811.596	448
811.648	422
811.699	436
811.75	462
811.801	448
811.852	433
811.903	451
811.954	452
812.005	457
812.056	438
812.107	453
812.158	423
812.209	435
812.26	424
812.311	427
812.362	439
812.413	441
812.464	421
812.515	448
812.566	407
812.617	444
812.668	440
812.719	450
812.77	431
812.821	436
812.872	424
812.923	440
812.974	431
813.025	425
813.076	432
813.127	428
813.178	435
813.229	444
813.28	403
813.331	434
813.382	429
813.433	413
813.484	429
813.535	417
813.586	423
813.637	427
813.688	432
813.739	428
813.79	424
813.841	407
813.892	410
813.943	407
813.994	427
814.045	420
814.096	419
814.147	432
814.198	425
814.249	412
814.3	400
814.351	405
814.402	418
814.453	435
814.504	411
814.555	418
814.606	418
814.657	415
814.708	413
814.759	431
814.81	410
814.861	427
814.912	416
814.963	417
815.014	408
815.065	434
815.116	389
815.167	421
815.217	410
815.268	406
815.319	395
815.37	415
815.421	413
815.472	418
815.523	397
815.574	405
815.625	401
815.676	394
815.727	407
815.778	395
815.829	397
815.88	412
815.931	383
815.982	388
816.033	411
816.084	399
816.135	399
816.186	395
816.237	407
816.288	388
816.339	386
816.39	411
816.441	392
816.492	392
816.543	397
816.594	413
816.645	384
816.696	392
816.747	371
816.798	384
816.849	382
816.9	400
816.951	391
817.001	388
817.052	388
817.103	383
817.154	392
817.205	375
817.256	393
817.307	392
817.358	379
817.409	381
817.46	383
817.511	384
817.562	366
817.613	374
817.664	376
817.715	380
817.766	379
817.817	379
817.868	364
817.919	377
817.97	367
818.021	384
818.071	377
818.122	370
818.173	364
818.224	374
818.275	373
818.326	392
818.377	367
818.428	378
818.479	377
818.53	383
818.581	369
818.632	394
818.683	376
818.734	365
818.785	377
818.836	377
818.887	389
818.938	366
818.988	383
819.039	363
819.09	367
819.141	368
819.192	374
819.243	364
819.294	354
819.345	370
819.396	367
819.447	364
819.498	365
819.549	367
819.6	375
819.651	369
819.702	344
819.753	345
819.803	352
819.854	353
819.905	354
819.956	376
820.007	356
820.058	356
820.109	372
820.16	372
820.211	366
820.262	378
820.313	374
820.364	356
820.415	361
820.465	346
820.516	365
820.567	355
820.618	339
820.669	365
820.72	351
820.771	345
820.822	351
820.873	348
820.924	343
820.975	341
821.026	351
821.076	364
821.127	352
821.178	355
821.229	340
821.28	351
821.331	346
821.382	350
821.433	342
821.484	349
821.535	333
821.586	346
821.637	345
821.687	351
821.738	348
821.789	348
821.84	337
821.891	333
821.942	336
821.993	357
822.044	344
822.095	341
822.146	333
822.196	345
822.247	343
822.298	337
822.349	343
822.4	355
822.451	345
822.502	339
822.553	348
822.604	333
822.655	338
822.706	331
822.756	339
822.807	337
822.858	321
822.909	335
822.96	346
823.011	329
823.062	326
823.113	330
823.164	345
823.214	334
823.265	331
823.316	332
823.367	332
823.418	333
823.469	340
823.52	324
823.571	322
823.622	329
823.672	320
823.723	329
823.774	333
823.825	336
823.876	326
823.927	334
823.978	330
824.029	324
824.08	324
824.13	309
824.181	325
824.232	338
824.283	313
824.334	310
824.385	326
824.436	315
824.487	312
824.537	326
824.588	335
824.639	312
824.69	312
824.741	312
824.792	313
824.843	321
824.893	320
824.944	295
824.995	317
825.046	310
825.097	330
825.148	316
825.199	311
825.25	311
825.3	326
825.351	313
825.402	321
825.453	312
825.504	315
825.555	306
825.606	324
825.657	308
825.707	320
825.758	315
825.809	298
825.86	307
825.911	309
825.962	302
826.013	310
826.063	312
826.114	308
826.165	308
826.216	314
826.267	310
826.318	314
826.369	302
826.419	306
826.47	303
826.521	311
826.572	310
826.623	319
826.674	306
826.725	300
826.775	316
826.826	317
826.877	317
826.928	300
826.979	304
827.03	311
827.08	322
827.131	312
827.182	293
827.233	309
827.284	299
827.335	301
827.386	304
827.436	301
827.487	295
827.538	288
827.589	297
827.64	301
827.691	292
827.741	299
827.792	292
827.843	299
827.894	285
827.945	278
827.996	292
828.046	306
828.097	298
828.148	294
828.199	297
828.25	292
828.301	304
828.351	284
828.402	296
828.453	300
828.504	294
828.555	297
828.606	290
828.656	294
828.707	281
828.758	282
828.809	287
828.86	302
828.911	286
828.961	280
829.012	285
829.063	294
829.114	289
829.165	285
829.216	274
829.266	278
829.317	293
829.368	283
829.419	280
829.47	299
829.52	287
829.571	280
829.622	279
829.673	291
829.724	284
829.774	269
829.825	272
829.876	291
829.927	285
829.978	295
830.029	275
830.079	282
830.13	264
830.181	289
830.232	274
830.283	282
830.333	289
830.384	290
830.435	283
830.486	290
830.537	288
830.587	286
830.638	274
830.689	286
830.74	273
830.791	269
830.841	282
830.892	274
830.943	290
830.994	278
831.045	265
831.095	283
831.146	285
831.197	280
831.248	286
831.299	278
831.349	283
831.4	287
831.451	265
831.502	279
831.553	289
831.603	283
831.654	284
831.705	273
831.756	276
831.807	276
831.857	270
831.908	273
831.959	263
832.01	277
832.061	261
832.111	271
832.162	283
832.213	274
832.264	268
832.315	271
832.365	269
832.416	256
832.467	256
832.518	269
832.568	265
832.619	264
832.67	276
832.721	256
832.772	280
832.822	263
832.873	261
832.924	266
832.975	271
833.025	266
833.076	253
833.127	266
833.178	267
833.229	260
833.279	239
833.33	257
833.381	244
833.432	263
833.482	263
833.533	258
833.584	261
833.635	256
833.685	254
833.736	261
833.787	253
833.838	252
833.889	258
833.939	254
833.99	250
834.041	251
834.092	248
834.142	266
834.193	270
834.244	254
834.295	259
834.345	266
834.396	256
834.447	260
834.498	239
834.548	246
834.599	251
834.65	253
834.701	244
834.751	265
834.802	254
834.853	253
834.904	258
834.954	262
835.005	263
835.056	263
835.107	251
835.157	253
835.208	265
835.259	249
835.31	242
835.36	246
835.411	249
835.462	257
835.513	249
835.563	242
835.614	259
835.665	239
835.716	245
835.766	262
835.817	246
835.868	249
835.919	258
835.969	256
836.02	253
836.071	253
836.122	247
836.172	251
836.223	265
836.274	253
836.325	237
836.375	243
836.426	255
836.477	242
836.528	238
836.578	250
836.629	231
836.68	244
836.73	248
836.781	233
836.832	250
836.883	246
836.933	226
836.984	250
837.035	250
837.086	237
837.136	241
837.187	246
837.238	239
837.288	246
837.339	248
837.39	244
837.441	249
837.491	248
837.542	232
837.593	234
837.643	255
837.694	237
837.745	231
837.796	244
837.846	240
837.897	242
837.948	240
837.999	231
838.049	236
838.1	223
838.151	241
838.201	231
838.252	246
838.303	232
838.354	236
838.404	221
838.455	241
838.506	233
838.556	243
838.607	243
838.658	229
838.708	246
838.759	234
838.81	233
838.861	226
838.911	243
838.962	234
839.013	227
839.063	233
839.114	236
839.165	240
839.216	237
839.266	251
839.317	236
839.368	226
839.418	234
839.469	238
839.52	236
839.57	220
839.621	229
839.672	224
839.722	234
839.773	227
839.824	220
839.875	226
839.925	237
839.976	223
840.027	224
840.077	227
840.128	232
840.179	220
840.229	213
840.28	234
840.331	220
840.381	233
840.432	227
840.483	219
840.534	220
840.584	211
840.635	229
840.686	234
840.736	226
840.787	230
840.838	225
840.888	223
840.939	239
840.99	213
841.04	221
841.091	210
841.142	224
841.192	210
841.243	229
841.294	223
841.344	218
841.395	229
841.446	218
841.496	227
841.547	225
841.598	223
841.648	212
841.699	220
841.75	235
841.8	218
841.851	218
841.902	218
841.952	232
842.003	219
842.054	220
842.104	220
842.155	214
842.206	203
842.256	223
842.307	230
842.358	227
842.408	224
842.459	214
842.51	222
842.56	216
842.611	220
842.662	214
842.712	227
842.763	224
842.814	211
842.864	216
842.915	209
842.966	220
843.016	215
843.067	210
843.118	218
843.168	221
843.219	212
843.269	216
843.32	214
843.371	215
843.421	207
843.472	204
843.523	213
843.573	211
843.624	221
843.675	213
843.725	216
843.776	210
843.827	211
843.877	205
843.928	212
843.979	216
844.029	217
844.08	221
844.13	221
844.181	215
844.232	200
844.282	208
844.333	220
844.384	210
844.434	202
844.485	213
844.536	200
844.586	216
844.637	214
844.687	201
844.738	191
844.789	211
844.839	205
844.89	199
844.941	206
844.991	204
845.042	201
845.092	213
845.143	212
845.194	230
845.244	215
845.295	201
845.346	212
845.396	205
845.447	196
845.497	199
845.548	206
845.599	210
845.649	194
845.7	201
845.75	207
845.801	207
845.852	208
845.902	202
845.953	197
846.004	197
846.054	202
846.105	198
846.155	203
846.206	193
846.257	208
846.307	197
846.358	194
846.409	196
846.459	191
846.51	186
846.56	189
846.611	211
846.661	194
846.712	193
846.763	198
846.813	202
846.864	195
846.915	199
846.965	198
847.016	194
847.066	188
847.117	179
847.168	205
847.218	205
847.269	192
847.319	195
847.37	197
847.421	197
847.471	185
847.522	199
847.572	195
847.623	191
847.674	193
847.724	201
847.775	199
847.825	209
847.876	202
847.926	195
847.977	182
848.028	191
848.078	185
848.129	190
848.179	192
848.23	202
848.281	178
848.331	185
848.382	193
848.432	197
848.483	197
848.534	177
848.584	199
848.635	201
848.685	196
848.736	189
848.786	187
848.837	191
848.888	186
848.938	185
848.989	190
849.039	183
849.09	194
849.14	181
849.191	198
849.242	181
849.292	188
849.343	187
849.393	194
849.444	181
849.494	188
849.545	206
849.596	194
849.646	186
849.697	178
849.747	201
849.798	189
849.848	187
849.899	187
849.95	186
850	173
850.051	180
850.101	184
850.152	198
850.202	186
850.253	192
850.303	171
850.354	170
850.405	188
850.455	185
850.506	178
850.556	177
850.607	195
850.657	179
850.708	167
850.758	181
850.809	184
850.86	177
850.91	183
850.961	179
851.011	180
851.062	182
851.112	194
851.163	184
851.213	169
851.264	192
851.314	170
851.365	177
851.416	184
851.466	180
851.517	188
851.567	173
851.618	183
851.668	181
851.719	167
851.769	183
851.82	189
851.87	179
851.921	179
851.971	168
852.022	180
852.073	182
852.123	173
852.174	180
852.224	176
852.275	184
852.325	183
852.376	180.985
852.426	172.172
852.477	168.137
852.527	170.781
852.578	174.439
852.628	178.065
852.679	172.079
852.729	176.744
852.78	179.895
852.831	169.819
852.881	175.309
852.932	176.313
852.982	169.577
853.033	173.564
853.083	173.855
853.134	177.282
853.184	174.748
853.235	168.364
853.285	165.3
853.336	175.675
853.386	169.878
853.437	174.43
853.487	174.637
853.538	184.784
853.588	162.964
853.639	182.452
853.689	178.789
853.74	170.338
853.79	169.076
853.841	174.398
853.891	173.462
853.942	173.473
853.992	166.092
854.043	172.611
854.093	169.645
854.144	173.382
854.194	170.201
854.245	168.143
854.295	173.023
854.346	176.225
854.396	166.37
854.447	175.549
854.497	168.425
854.548	167.386
854.598	166.987
854.649	165.639
854.699	164.3
854.75	165.549
854.8	166.04
854.851	175.204
854.901	164.61
854.952	175.763
855.002	168.761
855.053	163.454
855.103	157.987
855.154	167.85
855.204	168.415
855.255	168.875
855.305	161.445
855.356	160.753
855.406	168.119
855.457	171.09
855.507	165.464
855.558	160.068
855.608	163.491
855.659	167.089
855.709	166.798
855.76	167.257
855.81	165.027
855.861	161.119
855.911	161.795
855.962	164.039
856.012	163.7
856.063	158.942
856.113	165.771
856.164	163.116
856.214	166.256
856.265	161.852
856.315	161.267
856.366	163.639
856.416	163.579
856.467	171.973
856.517	169.346
856.568	163.833
856.618	163.452
856.668	163.408
856.719	159.092
856.769	157.322
856.82	158.126
856.87	156.427
856.921	158.811
856.971	159.827
857.022	160.896
857.072	163.507
857.123	161.208
857.173	160.229
857.224	161.609
857.274	162.545
857.325	155.892
857.352	158
857.403	164
857.453	172
857.504	161
857.555	149
857.606	158
857.656	154
857.707	165
857.758	155
857.809	171
857.859	155
857.91	157
857.961	151
858.012	154
858.063	152
858.113	151
858.164	155
858.215	162
858.266	167
858.316	149
858.367	158
858.418	149
858.469	155
858.519	148
858.57	156
858.621	160
858.672	162
858.722	159
858.773	155
858.824	146
858.875	152
858.925	156
858.976	152
859.027	159
859.078	153
859.128	143
859.179	156
859.23	149
859.281	168
859.331	153
859.382	159
859.433	152
859.483	159
859.534	141
859.585	148
859.636	152
859.686	164
859.737	154
859.788	154
859.839	146
859.889	165
859.94	165
859.991	140
860.042	157
860.092	161
860.143	143
860.194	150
860.245	150
860.295	156
860.346	161
860.397	148
860.447	154
860.498	147
860.549	150
860.6	156
860.65	153
860.701	164
860.752	149
860.802	155
860.853	153
860.904	152
860.955	151
861.005	153
861.056	146
861.107	152
861.158	143
861.208	152
861.259	154
861.31	144
861.36	148
861.411	149
861.462	145
861.513	148
861.563	154
861.614	147
861.665	143
861.715	140
861.766	153
861.817	151
861.868	140
861.918	154
861.969	136
862.02	146
862.07	143
862.121	149
862.172	140
862.223	148
862.273	145
862.324	141
862.375	140
862.425	146
862.476	146
862.527	147
862.577	146
862.628	147
862.679	143
862.73	150
862.78	155
862.831	150
862.882	153
862.932	147
862.983	139
863.034	144
863.084	137
863.135	147
863.186	151
863.237	154
863.287	136
863.338	146
863.389	133
863.439	134
863.49	140
863.541	152
863.591	157
863.642	149
863.693	143
863.744	149
863.794	137
863.845	149
863.896	143
863.946	148
863.997	134
864.048	144
864.098	149
864.149	139
864.2	134
864.25	145
864.301	137
864.352	144
864.402	138
864.453	146
864.504	142
864.555	144
864.605	136
864.656	139
864.707	144
864.757	139
864.808	146
864.859	150
864.909	138
864.96	131
865.011	127
865.061	136
865.112	136
865.163	137
865.213	148
865.264	138
865.315	145
865.365	144
865.416	137
865.467	145
865.517	140
865.568	136
865.619	132
865.669	142
865.72	144
865.771	141
865.821	148
865.872	148
865.923	126
865.973	153
866.024	143
866.075	142
866.125	144
866.176	139
866.227	133
866.277	142
866.328	131
866.379	141
866.429	139
866.48	137
866.531	143
866.581	126
866.632	139
866.683	127
866.733	144
866.784	130
866.835	130
866.885	130
866.936	130
866.987	139
867.037	139
867.088	128
867.138	137
867.189	128
867.24	140
867.29	141
867.341	137
867.392	128
867.442	130
867.493	128
867.544	134
867.594	130
867.645	132
867.696	133
867.746	132
867.797	138
867.848	141
867.898	135
867.949	131
867.999	135
868.05	125
868.101	128
868.151	127
868.202	130
868.253	134
868.303	134
868.354	130
868.405	136
868.455	127
868.506	122
868.556	134
868.607	129
868.658	125
868.708	136
868.759	129
868.81	138
868.86	136
868.911	132
868.961	128
869.012	129
869.063	127
869.113	125
869.164	130
869.215	144
869.265	127
869.316	135
869.367	136
869.417	124
869.468	133
869.518	126
869.569	126
869.62	127
869.67	134
869.721	137
869.771	126
869.822	133
869.873	138
869.923	125
869.974	127
870.025	123
870.075	125
870.126	127
870.176	128
870.227	131
870.278	130
870.328	125
870.379	121
870.43	132
870.48	118
870.531	122
870.581	121
870.632	122
870.683	128
870.733	123
870.784	118
870.834	123
870.885	113
870.936	127
870.986	125
871.037	128
871.087	126
871.138	117
871.189	131
871.239	105
871.29	134
871.34	119
871.391	131
871.442	131
871.492	133
871.543	118
871.593	138
871.644	125
871.695	122
871.745	120
871.796	118
871.846	125
871.897	137
871.948	117
871.998	125
872.049	122
872.099	128
872.15	117
872.201	126
872.251	117
872.302	131
872.352	131
872.403	119
872.453	116
872.504	121
872.555	117
872.605	117
872.656	117
872.706	125
872.757	112
872.808	131
872.858	118
872.909	120
872.959	119
873.01	124
873.06	131
873.111	120
873.162	118
873.212	119
873.263	101
873.313	108
873.364	121
873.415	123
873.465	118
873.516	135
873.566	112
873.617	125
873.667	121
873.718	114
873.769	111
873.819	119
873.87	112
873.92	124
873.971	119
874.021	123
874.072	110
874.123	113
874.173	109
874.224	127
874.274	118
874.325	119
874.375	121
874.426	121
874.477	124
874.527	112
874.578	113
874.628	122
874.679	117
874.729	129
874.78	123
874.83	115
874.881	126
874.932	112
874.982	114
875.033	130
875.083	112
875.134	112
875.184	123
875.235	127
875.285	115
875.336	121
875.387	115
875.437	117
875.488	111
875.538	122
875.589	113
875.639	124
875.69	112
875.74	113
875.791	120
875.841	115
875.892	124
875.943	121
875.993	125
876.044	113
876.094	118
876.145	112
876.195	120
876.246	111
876.296	110
876.347	105
876.397	110
876.448	129
876.499	116
876.549	117
876.6	108
876.65	116
876.701	116
876.751	116
876.802	118
876.852	110
876.903	118
876.953	118
877.004	124
877.054	107
877.105	116
877.155	116
877.206	111
877.257	116
877.307	118
877.358	115
877.408	108
877.459	112
877.509	109
877.56	122
877.61	113
877.661	113
877.711	111
877.762	106
877.812	115
877.863	110
877.913	108
877.964	117
878.014	111
878.065	126
878.115	108
878.166	110
878.216	117
878.267	111
878.318	104
878.368	115
878.419	108
878.469	116
878.52	113
878.57	111
878.621	109
878.671	110
878.722	109
878.772	112
878.823	117
878.873	114
878.924	113
878.974	116
879.025	113
879.075	111
879.126	107
879.176	111
879.227	110
879.277	118
879.328	111
879.378	102
879.429	104
879.479	109
879.53	106
879.58	114
879.631	111
879.681	107
879.732	116
879.782	113
879.833	113
879.883	101
879.934	107
879.984	108
880.035	113
880.085	108
880.136	107
880.186	96
880.237	103
880.287	108
880.338	106
880.388	105
880.439	107
880.489	111
880.54	115
880.59	113
880.641	123
880.691	109
880.742	105
880.792	108
880.842	106
880.893	105
880.943	101
880.994	107
881.044	120
881.095	103
881.145	107
881.196	116
881.246	100
881.297	108
881.347	104
881.398	98
881.448	120
881.499	107
881.549	97
881.6	105
881.65	105
881.701	109
881.751	104
881.802	108
881.852	104
881.902	112
881.953	104
882.003	109
882.054	115
882.104	114
882.155	111
882.205	101
882.256	106
882.306	96
882.357	99
882.407	97
882.458	111
882.508	104
882.559	108
882.609	111
882.659	104
882.71	102
882.76	102
882.811	109
882.861	104
882.912	93
882.962	103
883.013	97
883.063	106
883.114	100
883.164	101
883.214	103
883.265	113
883.315	105
883.366	106
883.416	100
883.467	111
883.517	96
883.568	100
883.618	99
883.669	92
883.719	93
883.769	96
883.82	98
883.87	104
883.921	94
883.971	102
884.022	101
884.072	92
884.123	94
884.173	106
884.223	97
884.274	108
884.324	106
884.375	103
884.425	103
884.476	100
884.526	99
884.577	105
884.627	96
884.677	108
884.728	93
884.778	96
884.829	95
884.879	93
884.93	100
884.98	107
885.03	102
885.081	108
885.131	95
885.182	99
885.232	91
885.283	102
885.333	94
885.383	102
885.434	93
885.484	113
885.535	91
885.585	103
885.635	109
885.686	96
885.736	98
885.787	98
885.837	91
885.888	105
885.938	96
885.988	100
886.039	95
886.089	100
886.14	95
886.19	101
886.241	106
886.291	101
886.341	104
886.392	97
886.442	102
886.493	103
886.543	100
886.593	103
886.644	94
886.694	91
886.745	93
886.795	97
886.845	92
886.896	92
886.946	90
886.997	97
887.047	95
887.097	102
887.148	91
887.198	96
887.249	96
887.299	90
887.349	82
887.4	101
887.45	99
887.501	95
887.551	91
887.602	98
887.652	95
887.702	94
887.753	91
887.803	96
887.853	90
887.904	96
887.954	86
888.005	94
888.055	89
888.105	91
888.156	97
888.206	95
888.257	88
888.307	101
888.357	85
888.408	94
888.458	98
888.509	95
888.559	99
888.609	101
888.66	92
888.71	96
888.76	88
888.811	95
888.861	88
888.912	88
888.962	95
889.012	90
889.063	88
889.113	91
889.163	99
889.214	87
889.264	88
889.315	84
889.365	87
889.415	87
889.466	88
889.516	97
889.566	92
889.617	92
889.667	93
889.718	86
889.768	90
889.818	83
889.869	91
889.919	88
889.969	92
890.02	93
890.07	93
890.12	88
890.171	87
890.221	80
890.272	86
890.322	93
890.372	80
890.423	107
890.473	87
890.523	82
890.574	92
890.624	91
890.674	94
890.725	97
890.775	87
890.826	86
890.876	91
890.926	85
890.977	81
891.027	91
891.077	88
891.128	84
891.178	89
891.228	97
891.279	87
891.329	88
891.379	82
891.43	82
891.48	91
891.53	91
891.581	85
891.631	86
891.681	85
891.732	94
891.782	87
891.832	93
891.883	87
891.933	92
891.983	89
892.034	90
892.084	88
892.134	90
892.185	87
892.235	87
892.286	87
892.336	84
892.386	94
892.437	83
892.487	82
892.537	89
892.587	85
892.638	84
892.688	89
892.738	85
892.789	89
892.839	82
892.889	85
892.94	91
892.99	93
893.04	82
893.091	82
893.141	88
893.191	74
893.242	79
893.292	87
893.342	82
893.393	81
893.443	87
893.493	82
893.544	85
893.594	92
893.644	85
893.695	82
893.745	85
893.795	85
893.846	84
893.896	81
893.946	81
893.996	84
894.047	89
894.097	75
894.147	76
894.198	85
894.248	81
894.298	87
894.349	93
894.399	88
894.449	85
894.5	85
894.55	77
894.6	80
894.65	79
894.701	80
894.751	88
894.801	76
894.852	82
894.902	85
894.952	79
895.003	90
895.053	85
895.103	80
895.153	85
895.204	80
895.254	71
895.304	74
895.355	81
895.405	82
895.455	76
895.505	74
895.556	81
895.606	77
895.656	82
895.707	85
895.757	80
895.807	87
895.858	76
895.908	79
895.958	78
896.008	76
896.059	80
896.109	89
896.159	79
896.21	86
896.26	78
896.31	71
896.36	83
896.411	75
896.461	79
896.511	80
896.561	88
896.612	86
896.662	75
896.712	79
896.763	74
896.813	81
896.863	84
896.913	81
896.964	74
897.014	88
897.064	71
897.115	76
897.165	79
897.215	85
897.265	74
897.316	77
897.366	73
897.416	85
897.466	71
897.517	78
897.567	73
897.617	81
897.667	80
897.718	71
897.768	78
897.818	84
897.868	74
897.919	78
897.969	74
898.019	76
898.069	76
898.12	91
898.17	79
898.22	80
898.27	70
898.321	75
898.371	72
898.421	85
898.471	73
898.522	74
898.572	74
898.622	81
898.672	82
898.723	79
898.773	72
898.823	76
898.873	82
898.924	72
898.974	78
899.024	81
899.074	77
899.125	75.5
899.175	74
899.225	71
899.275	78
899.326	76
899.376	72
899.426	90
899.476	71
899.527	75
899.577	73
899.627	81
899.677	79
899.728	80
899.778	74
899.828	79
899.878	66
899.928	75
899.979	69
