#Acq. time (s)=	3
#Accumulations=	2
#Range (nm)=	520...900
#Windows=	8
#Auto scanning=	Off
#Autofocus=	Off
#AutoExposure=	Off
#Spike filter=	Multiple accum.
#Delay time (s)=	0
#Binning=	1
#Readout mode=	Signal
#DeNoise=	Off
#ICS correction=	Off
#Dark correction=	Off
#Inst. Process=	Off
#Detector temperature (°C)=	-59.98
#Instrument=	LabRAM HR Evol
#Detector=	Syncerity OE
#Objective=	x50_VIS
#Grating=	600 (500nm)
#ND Filter=	25%
#Laser=	514nm_Edge
#Hole=	199.981
#Range=	Auto
#StageXY=	Marzhauser
#StageZ=	Marzhauser
#X (µm)=	-94.9
#Y (µm)=	6302
#Z (µm)=	-9.9
#Full time(mm:ss)=	1:32
#Project=	
#Sample=	
#Site=	
#Title=	PL_M5_180324
#Remark=	
#Date=	28.03.2024 09:26
#Acquired=	28.03.2024 09:26:05
520.044	50
520.097	48
520.149	40
520.201	46
520.254	44
520.306	40
520.359	42
520.411	48
520.464	42
520.516	48
520.569	40
520.621	40
520.674	42
520.726	56
520.778	44
520.831	52
520.883	48
520.936	46
520.988	38
521.041	46
521.093	48
521.146	44
521.198	40
521.25	44
521.303	48
521.355	44
521.408	36
521.46	40
521.513	36
521.565	42
521.617	44
521.67	52
521.722	50
521.775	42
521.827	36
521.88	50
521.932	44
521.984	50
522.037	42
522.089	44
522.142	38
522.194	50
522.247	38
522.299	46
522.352	42
522.404	48
522.456	54
522.509	48
522.561	42
522.614	48
522.666	42
522.719	42
522.771	38
522.823	50
522.876	48
522.928	46
522.981	42
523.033	42
523.086	40
523.138	40
523.19	40
523.243	50
523.295	48
523.348	46
523.4	46
523.453	40
523.505	38
523.557	44
523.61	44
523.662	50
523.715	32
523.767	54
523.82	46
523.872	44
523.924	46
523.977	38
524.029	40
524.082	48
524.134	42
524.186	48
524.239	52
524.291	40
524.344	46
524.396	44
524.449	50
524.501	42
524.553	42
524.606	50
524.658	48
524.711	42
524.763	40
524.815	46
524.868	42
524.92	52
524.973	44
525.025	46
525.078	40
525.13	36
525.182	46
525.235	46
525.287	50
525.34	48
525.392	40
525.444	46
525.497	42
525.549	40
525.602	46
525.654	48
525.706	42
525.759	42
525.811	34
525.864	42
525.916	40
525.969	44
526.021	50
526.073	42
526.126	38
526.178	46
526.231	48
526.283	42
526.335	40
526.388	48
526.44	44
526.493	42
526.545	38
526.597	50
526.65	36
526.702	50
526.755	52
526.807	40
526.859	48
526.912	42
526.964	38
527.017	38
527.069	48
527.121	44
527.174	48
527.226	42
527.279	32
527.331	48
527.383	44
527.436	44
527.488	44
527.54	48
527.593	52
527.645	32
527.698	38
527.75	44
527.802	40
527.855	44
527.907	40
527.96	44
528.012	54
528.064	44
528.117	44
528.169	50
528.222	46
528.274	46
528.326	42
528.379	52
528.431	38
528.484	42
528.536	38
528.588	52
528.641	52
528.693	44
528.745	52
528.798	46
528.85	48
528.903	42
528.955	36
529.007	54
529.06	42
529.112	46
529.164	50
529.217	46
529.269	48
529.322	44
529.374	32
529.426	44
529.479	42
529.531	46
529.584	42
529.636	44
529.688	42
529.741	40
529.793	44
529.845	44
529.898	44
529.95	46
530.003	44
530.055	48
530.107	44
530.16	42
530.212	44
530.264	46
530.317	48
530.369	46
530.422	38
530.474	38
530.526	46
530.579	46
530.631	32
530.683	54
530.736	46
530.788	42
530.841	42
530.893	52
530.945	56
530.998	40
531.05	46
531.102	46
531.155	42
531.207	54
531.259	42
531.312	48
531.364	48
531.417	46
531.469	40
531.521	42
531.574	48
531.626	46
531.678	56
531.731	54
531.783	44
531.835	48
531.888	50
531.94	46
531.992	50
532.045	52
532.097	50
532.15	50
532.202	48
532.254	52
532.307	48
532.359	46
532.411	46
532.464	42
532.516	44
532.568	54
532.621	52
532.673	50
532.726	44
532.778	56
532.83	44
532.883	56
532.935	52
532.987	48
533.04	58
533.092	44
533.144	48
533.197	46
533.249	58
533.301	54
533.354	62
533.406	60
533.458	54
533.511	62
533.563	60
533.615	58
533.668	48
533.72	54
533.773	46
533.825	58
533.877	50
533.93	52
533.982	56
534.034	58
534.087	58
534.139	72
534.191	58
534.244	70
534.296	64
534.348	60
534.401	58
534.453	74
534.505	64
534.558	88
534.61	86
534.662	82
534.715	82
534.767	84
534.819	78
534.872	86
534.924	88
534.976	86
535.029	86
535.081	92
535.133	84
535.186	98
535.238	78
535.29	98
535.343	90
535.395	94
535.447	88
535.5	96
535.552	88
535.604	96
535.657	92
535.709	88
535.761	76
535.814	82
535.866	72
535.918	82
535.971	84
536.023	72
536.075	78
536.128	74
536.18	80
536.232	76
536.285	68
536.337	56
536.389	72
536.442	58
536.494	56
536.546	78
536.599	66
536.651	64
536.703	60
536.755	64
536.808	64
536.86	62
536.912	60
536.965	64
537.017	60
537.069	64
537.122	62
537.174	66
537.226	64
537.279	64
537.331	58
537.383	68
537.436	56
537.488	54
537.54	66
537.593	62
537.645	66
537.697	58
537.75	56
537.802	62
537.854	64
537.906	60
537.959	62
538.011	66
538.063	62
538.116	62
538.168	58
538.22	60
538.273	70
538.325	68
538.377	60
538.43	62
538.482	48
538.534	62
538.586	62
538.639	60
538.691	58
538.743	70
538.796	56
538.848	58
538.9	56
538.953	72
539.005	58
539.057	66
539.109	44
539.162	64
539.214	66
539.266	68
539.319	62
539.371	60
539.423	54
539.476	72
539.528	64
539.58	62
539.633	64
539.685	68
539.737	54
539.789	70
539.842	58
539.894	62
539.946	64
539.999	62
540.051	58
540.103	50
540.155	70
540.208	70
540.26	54
540.312	74
540.365	64
540.417	64
540.469	62
540.521	58
540.574	56
540.626	70
540.678	52
540.731	70
540.783	70
540.835	68
540.888	70
540.94	78
540.992	72
541.044	64
541.097	70
541.149	66
541.201	66
541.254	82
541.306	80
541.358	70
541.41	78
541.463	62
541.515	70
541.567	78
541.62	68
541.672	66
541.724	70
541.776	76
541.829	62
541.881	72
541.933	64
541.985	70
542.038	56
542.09	72
542.142	66
542.195	74
542.247	80
542.299	72
542.351	74
542.404	74
542.456	74
542.508	74
542.56	70
542.613	74
542.665	70
542.717	68
542.77	82
542.822	72
542.874	72
542.926	76
542.979	68
543.031	74
543.083	80
543.135	80
543.188	70
543.24	76
543.292	76
543.344	80
543.397	86
543.449	86
543.501	70
543.554	76
543.606	82
543.658	84
543.71	72
543.763	86
543.815	84
543.867	82
543.919	88
543.972	90
544.024	78
544.076	90
544.128	82
544.181	96
544.233	84
544.285	86
544.337	82
544.39	92
544.442	80
544.494	90
544.547	80
544.599	86
544.651	84
544.703	86
544.755	84
544.808	90
544.86	82
544.912	98
544.965	92
545.017	92
545.069	86
545.121	88
545.174	88
545.226	90
545.278	78
545.33	94
545.383	96
545.435	88
545.487	78
545.539	86
545.591	90
545.644	92
545.696	86
545.748	96
545.8	98
545.853	90
545.905	84
545.957	92
546.009	80
546.062	90
546.114	82
546.166	100
546.218	96
546.271	102
546.323	90
546.375	96
546.427	90
546.48	94
546.532	94
546.584	96
546.636	88
546.689	104
546.741	92
546.793	96
546.845	92
546.898	98
546.95	98
547.002	94
547.054	102
547.106	106
547.159	98
547.211	106
547.263	98
547.315	110
547.368	102
547.42	102
547.472	92
547.524	110
547.577	100
547.629	104
547.681	102
547.733	116
547.785	88
547.838	114
547.89	102
547.942	104
547.994	96
548.047	114
548.099	104
548.151	120
548.203	112
548.255	110
548.308	104
548.36	110
548.412	102
548.464	112
548.517	122
548.569	92
548.621	104
548.673	108
548.725	108
548.778	114
548.83	104
548.882	126
548.934	114
548.987	106
549.039	112
549.091	118
549.143	116
549.195	132
549.248	106
549.3	122
549.352	120
549.404	124
549.456	106
549.509	124
549.561	132
549.613	128
549.665	128
549.718	126
549.77	124
549.822	130
549.874	120
549.926	128
549.979	126
550.031	134
550.083	122
550.135	130
550.187	126
550.24	134
550.292	128
550.344	130
550.396	130
550.448	146
550.501	134
550.553	134
550.605	144
550.657	144
550.709	144
550.762	158
550.814	144
550.866	160
550.918	148
550.97	162
551.023	152
551.075	166
551.127	148
551.179	162
551.231	162
551.284	174
551.336	156
551.388	174
551.44	176
551.492	190
551.545	184
551.597	194
551.649	200
551.701	208
551.753	202
551.806	208
551.858	242
551.91	246
551.962	236
552.014	280
552.067	280
552.119	304
552.171	340
552.223	428
552.275	480
552.327	602
552.38	858
552.432	1594
552.484	3410
552.536	6330
552.588	11192
552.641	22606
552.693	32486
552.745	22360
552.797	10144
552.849	3590
552.901	1422
552.954	888
553.006	622
553.058	486
553.11	394
553.162	336
553.215	324
553.267	290
553.319	264
553.371	256
553.423	226
553.475	224
553.528	216
553.58	226
553.632	200
553.684	198
553.736	194
553.788	216
553.841	180
553.893	184
553.945	194
553.997	188
554.049	172
554.102	190
554.154	174
554.206	180
554.258	178
554.31	176
554.362	176
554.414	188
554.467	174
554.519	176
554.571	164
554.623	186
554.675	174
554.727	174
554.78	164
554.832	182
554.884	184
554.936	188
554.988	162
555.04	206
555.093	170
555.145	180
555.197	184
555.249	172
555.301	178
555.353	176
555.406	170
555.458	178
555.51	162
555.562	186
555.614	176
555.666	174
555.719	176
555.771	178
555.823	182
555.875	192
555.927	164
555.979	182
556.031	188
556.084	182
556.136	182
556.188	182
556.24	194
556.292	198
556.344	180
556.396	196
556.449	202
556.501	200
556.553	200
556.605	184
556.657	188
556.709	194
556.762	200
556.814	198
556.866	196
556.918	188
556.97	210
557.022	202
557.074	206
557.127	208
557.179	204
557.231	200
557.283	202
557.335	222
557.387	202
557.439	206
557.492	192
557.544	218
557.596	218
557.648	216
557.7	208
557.752	218
557.804	202
557.856	202
557.909	200
557.961	208
558.013	212
558.065	196
558.117	218
558.169	218
558.221	208
558.273	216
558.326	216
558.378	224
558.43	212
558.482	216
558.534	216
558.586	216
558.638	212
558.691	210
558.743	216
558.795	220
558.847	218
558.899	234
558.951	210
559.003	232
559.055	230
559.108	228
559.16	216
559.212	226
559.264	218
559.316	238
559.368	220
559.42	230
559.472	210
559.525	234
559.577	238
559.629	238
559.681	224
559.733	224
559.785	214
559.837	218
559.889	218
559.941	236
559.994	228
560.046	240
560.098	252
560.15	230
560.202	228
560.254	228
560.306	238
560.358	244
560.41	252
560.463	256
560.515	234
560.567	244
560.619	266
560.671	246
560.723	240
560.775	254
560.827	238
560.879	270
560.932	262
560.984	276
561.036	242
561.088	256
561.14	246
561.192	260
561.244	266
561.296	266
561.348	274
561.4	272
561.453	264
561.505	272
561.557	252
561.609	282
561.661	280
561.713	292
561.765	268
561.817	284
561.869	278
561.921	268
561.974	270
562.026	286
562.078	268
562.13	288
562.182	286
562.234	306
562.286	278
562.338	290
562.39	256
562.442	288
562.494	302
562.547	302
562.599	296
562.651	304
562.703	316
562.755	316
562.807	292
562.859	310
562.911	308
562.963	318
563.015	312
563.067	316
563.12	316
563.172	328
563.224	326
563.276	312
563.328	328
563.38	326
563.432	350
563.484	336
563.536	348
563.588	336
563.64	338
563.692	356
563.744	358
563.797	368
563.849	364
563.901	372
563.953	360
564.005	366
564.057	386
564.109	396
564.161	392
564.213	398
564.265	378
564.317	396
564.369	392
564.421	392
564.474	384
564.526	396
564.578	372
564.63	394
564.682	364
564.734	384
564.786	378
564.838	372
564.89	348
564.942	378
564.994	356
565.046	380
565.098	354
565.15	368
565.202	356
565.255	362
565.307	360
565.359	372
565.411	372
565.463	376
565.515	366
565.567	374
565.619	378
565.671	350
565.723	374
565.775	382
565.827	380
565.879	376
565.931	370
565.983	388
566.035	396
566.087	358
566.139	354
566.192	392
566.244	382
566.296	384
566.348	380
566.4	404
566.452	372
566.504	378
566.556	394
566.608	388
566.66	400
566.712	396
566.764	404
566.816	416
566.868	404
566.92	388
566.972	376
567.024	404
567.076	396
567.128	400
567.18	400
567.232	400
567.285	394
567.337	414
567.389	410
567.441	410
567.493	408
567.545	408
567.597	410
567.649	412
567.701	404
567.753	430
567.805	412
567.857	444
567.909	418
567.961	420
568.013	440
568.065	434
568.117	427.93
568.169	429.937
568.221	424.167
568.273	431.532
568.325	448.431
568.377	446.806
568.429	441.346
568.481	455.134
568.533	425.672
568.585	440.476
568.637	429.785
568.69	442.969
568.742	441.362
568.794	461.03
568.846	453.237
568.898	463.416
568.95	434.383
569.002	460.345
569.054	446.504
569.106	468.416
569.158	461.576
569.21	480.415
569.262	466.107
569.314	464.209
569.366	474.844
569.418	456.404
569.47	471.312
569.522	463.062
569.574	469.609
569.626	488.769
569.678	481.522
569.73	492.699
569.782	481.579
569.834	486.206
569.886	473.92
569.938	496.745
569.99	502.071
570.042	499.289
570.094	494.922
570.146	508.1
570.198	509.09
570.25	506.028
570.302	511.229
570.354	514.328
570.406	508.69
570.458	510.67
570.51	529.773
570.562	520.274
570.614	526.283
570.666	528.478
570.718	534.909
570.77	549.254
570.822	540.925
570.874	551.32
570.926	547.137
570.978	552.297
571.03	557.226
571.082	569.3
571.134	557.666
571.186	574.863
571.238	576.031
571.29	576.16
571.342	587.198
571.394	592.817
571.446	588.707
571.498	602.32
571.55	618.161
571.602	611.353
571.654	615.783
571.706	609.046
571.758	642.016
571.81	637.672
571.862	617.069
571.914	629.81
571.966	643.96
572.018	654.767
572.07	656.271
572.122	667.114
572.174	686.664
572.226	673.02
572.278	675.039
572.33	694.811
572.382	709.589
572.434	722.813
572.486	708.386
572.538	719.863
572.59	747.965
572.642	715.407
572.694	735.136
572.746	744.994
572.798	758.275
572.85	778.836
572.902	780.966
572.954	814.888
573.006	810.471
573.058	805.304
573.11	812.222
573.162	836.589
573.214	850.484
573.266	852.477
573.312	854
573.364	840
573.416	884
573.469	892
573.521	904
573.573	936
573.625	926
573.677	954
573.73	976
573.782	966
573.834	1000
573.886	1034
573.938	1050
573.991	1040
574.043	1062
574.095	1072
574.147	1070
574.199	1136
574.252	1076
574.304	1146
574.356	1168
574.408	1182
574.46	1212
574.513	1236
574.565	1240
574.617	1302
574.669	1310
574.721	1334
574.774	1352
574.826	1310
574.878	1402
574.93	1396
574.982	1456
575.035	1446
575.087	1466
575.139	1518
575.191	1504
575.243	1518
575.296	1560
575.348	1536
575.4	1572
575.452	1532
575.504	1618
575.556	1640
575.609	1646
575.661	1652
575.713	1640
575.765	1566
575.817	1682
575.87	1654
575.922	1692
575.974	1644
576.026	1652
576.078	1656
576.131	1644
576.183	1604
576.235	1640
576.287	1662
576.339	1640
576.391	1624
576.444	1586
576.496	1592
576.548	1542
576.6	1536
576.652	1528
576.705	1474
576.757	1532
576.809	1510
576.861	1480
576.913	1472
576.965	1366
577.018	1424
577.07	1396
577.122	1384
577.174	1374
577.226	1336
577.279	1316
577.331	1302
577.383	1326
577.435	1326
577.487	1296
577.539	1272
577.592	1248
577.644	1266
577.696	1208
577.748	1196
577.8	1236
577.852	1178
577.905	1162
577.957	1142
578.009	1158
578.061	1138
578.113	1158
578.165	1154
578.218	1142
578.27	1114
578.322	1132
578.374	1106
578.426	1110
578.478	1096
578.531	1116
578.583	1104
578.635	1062
578.687	1072
578.739	1050
578.791	1040
578.844	1076
578.896	1032
578.948	1064
579	1088
579.052	1034
579.104	1066
579.157	1046
579.209	1048
579.261	1050
579.313	1050
579.365	1056
579.417	1056
579.47	1066
579.522	1034
579.574	1070
579.626	1052
579.678	1050
579.73	1042
579.782	1006
579.835	1044
579.887	1034
579.939	1076
579.991	1066
580.043	1062
580.095	1068
580.148	1058
580.2	1046
580.252	1044
580.304	1058
580.356	1054
580.408	1070
580.46	1020
580.513	1056
580.565	1054
580.617	1070
580.669	1096
580.721	1046
580.773	998
580.826	1030
580.878	1072
580.93	1056
580.982	1066
581.034	1052
581.086	1046
581.138	1028
581.191	1046
581.243	1054
581.295	1056
581.347	1088
581.399	1050
581.451	1054
581.503	1096
581.556	1082
581.608	1078
581.66	1044
581.712	1078
581.764	1084
581.816	1082
581.868	1084
581.92	1050
581.973	1086
582.025	1090
582.077	1080
582.129	1094
582.181	1106
582.233	1108
582.285	1078
582.338	1128
582.39	1108
582.442	1130
582.494	1086
582.546	1102
582.598	1090
582.65	1094
582.703	1100
582.755	1094
582.807	1122
582.859	1118
582.911	1098
582.963	1110
583.015	1130
583.067	1134
583.12	1116
583.172	1148
583.224	1150
583.276	1136
583.328	1114
583.38	1142
583.432	1156
583.484	1140
583.537	1150
583.589	1180
583.641	1178
583.693	1166
583.745	1176
583.797	1176
583.849	1186
583.901	1188
583.953	1180
584.006	1194
584.058	1228
584.11	1190
584.162	1194
584.214	1200
584.266	1196
584.318	1192
584.37	1220
584.423	1206
584.475	1240
584.527	1242
584.579	1248
584.631	1244
584.683	1244
584.735	1242
584.787	1270
584.839	1278
584.892	1278
584.944	1258
584.996	1294
585.048	1252
585.1	1294
585.152	1290
585.204	1322
585.256	1286
585.308	1366
585.361	1318
585.413	1306
585.465	1320
585.517	1318
585.569	1314
585.621	1344
585.673	1316
585.725	1338
585.777	1316
585.83	1388
585.882	1360
585.934	1366
585.986	1396
586.038	1352
586.09	1380
586.142	1416
586.194	1398
586.246	1384
586.298	1382
586.351	1400
586.403	1360
586.455	1386
586.507	1390
586.559	1388
586.611	1370
586.663	1406
586.715	1380
586.767	1434
586.819	1402
586.872	1434
586.924	1394
586.976	1388
587.028	1430
587.08	1410
587.132	1414
587.184	1430
587.236	1410
587.288	1412
587.34	1422
587.392	1422
587.445	1420
587.497	1450
587.549	1444
587.601	1442
587.653	1428
587.705	1464
587.757	1424
587.809	1436
587.861	1436
587.913	1460
587.965	1424
588.018	1418
588.07	1456
588.122	1468
588.174	1492
588.226	1464
588.278	1460
588.33	1460
588.382	1466
588.434	1454
588.486	1444
588.538	1442
588.59	1494
588.642	1486
588.695	1472
588.747	1470
588.799	1508
588.851	1476
588.903	1474
588.955	1504
589.007	1516
589.059	1480
589.111	1504
589.163	1530
589.215	1534
589.267	1520
589.319	1560
589.372	1512
589.424	1532
589.476	1546
589.528	1504
589.58	1522
589.632	1554
589.684	1506
589.736	1498
589.788	1524
589.84	1526
589.892	1534
589.944	1498
589.996	1544
590.048	1516
590.101	1520
590.153	1512
590.205	1512
590.257	1508
590.309	1540
590.361	1500
590.413	1530
590.465	1512
590.517	1522
590.569	1528
590.621	1516
590.673	1506
590.725	1516
590.777	1528
590.829	1520
590.881	1492
590.933	1534
590.986	1538
591.038	1528
591.09	1464
591.142	1520
591.194	1510
591.246	1434
591.298	1472
591.35	1500
591.402	1466
591.454	1468
591.506	1472
591.558	1480
591.61	1488
591.662	1462
591.714	1446
591.766	1440
591.818	1468
591.87	1450
591.923	1456
591.975	1500
592.027	1474
592.079	1450
592.131	1476
592.183	1458
592.235	1462
592.287	1442
592.339	1470
592.391	1488
592.443	1440
592.495	1470
592.547	1400
592.599	1482
592.651	1498
592.703	1456
592.755	1422
592.807	1446
592.859	1486
592.911	1464
592.963	1434
593.015	1448
593.068	1486
593.12	1432
593.172	1478
593.224	1458
593.276	1460
593.328	1450
593.38	1432
593.432	1448
593.484	1456
593.536	1440
593.588	1460
593.64	1494
593.692	1470
593.744	1464
593.796	1458
593.848	1490
593.9	1460
593.952	1430
594.004	1466
594.056	1482
594.108	1458
594.16	1454
594.212	1492
594.264	1480
594.316	1472
594.368	1448
594.42	1478
594.472	1476
594.524	1488
594.576	1458
594.628	1504
594.68	1504
594.732	1480
594.784	1522
594.837	1524
594.889	1472
594.941	1462
594.993	1520
595.045	1478
595.097	1504
595.149	1528
595.201	1512
595.253	1512
595.305	1506
595.357	1532
595.409	1534
595.461	1542
595.513	1514
595.565	1564
595.617	1516
595.669	1558
595.721	1576
595.773	1524
595.825	1564
595.877	1530
595.929	1572
595.981	1570
596.033	1572
596.085	1554
596.137	1592
596.189	1598
596.241	1562
596.293	1598
596.345	1584
596.397	1644
596.449	1600
596.501	1638
596.553	1598
596.605	1670
596.657	1696
596.709	1666
596.761	1656
596.813	1622
596.865	1592
596.917	1602
596.969	1626
597.021	1636
597.073	1564
597.125	1618
597.177	1612
597.229	1600
597.281	1654
597.333	1638
597.385	1652
597.437	1694
597.489	1632
597.541	1638
597.593	1614
597.645	1642
597.697	1630
597.749	1686
597.801	1706
597.853	1608
597.905	1668
597.957	1682
598.009	1700
598.061	1718
598.113	1680
598.165	1682
598.217	1668
598.269	1636
598.321	1642
598.373	1652
598.425	1640
598.477	1684
598.529	1680
598.581	1656
598.633	1662
598.685	1686
598.737	1686
598.789	1680
598.841	1698
598.893	1646
598.945	1688
598.997	1646
599.049	1686
599.101	1666
599.153	1702
599.205	1628
599.257	1720
599.309	1704
599.361	1680
599.413	1686
599.465	1706
599.517	1678
599.569	1676
599.62	1662
599.672	1676
599.724	1722
599.776	1676
599.828	1688
599.88	1710
599.932	1658
599.984	1704
600.036	1710
600.088	1724
600.14	1676
600.192	1656
600.244	1688
600.296	1706
600.348	1688
600.4	1684
600.452	1654
600.504	1694
600.556	1706
600.608	1700
600.66	1678
600.712	1690
600.764	1664
600.816	1676
600.868	1730
600.92	1690
600.972	1690
601.024	1648
601.076	1666
601.128	1676
601.18	1706
601.232	1660
601.284	1722
601.335	1706
601.387	1690
601.439	1714
601.491	1672
601.543	1714
601.595	1726
601.647	1710
601.699	1690
601.751	1682
601.803	1674
601.855	1666
601.907	1688
601.959	1722
602.011	1680
602.063	1700
602.115	1694
602.167	1728
602.219	1690
602.271	1732
602.323	1698
602.375	1690
602.427	1722
602.478	1710
602.53	1694
602.582	1714
602.634	1690
602.686	1704
602.738	1736
602.79	1718
602.842	1678
602.894	1716
602.946	1678
602.998	1702
603.05	1738
603.102	1720
603.154	1708
603.206	1738
603.258	1718
603.31	1750
603.362	1758
603.413	1738
603.465	1762
603.517	1748
603.569	1774
603.621	1674
603.673	1748
603.725	1770
603.777	1780
603.829	1748
603.881	1748
603.933	1676
603.985	1758
604.037	1774
604.089	1720
604.141	1728
604.193	1828
604.244	1754
604.296	1734
604.348	1744
604.4	1748
604.452	1780
604.504	1754
604.556	1768
604.608	1776
604.66	1740
604.712	1748
604.764	1770
604.816	1796
604.868	1752
604.92	1728
604.971	1764
605.023	1752
605.075	1758
605.127	1806
605.179	1800
605.231	1740
605.283	1732
605.335	1764
605.387	1812
605.439	1790
605.491	1764
605.543	1796
605.594	1732
605.646	1756
605.698	1796
605.75	1722
605.802	1800
605.854	1768
605.906	1790
605.958	1746
606.01	1708
606.062	1764
606.114	1772
606.166	1746
606.217	1738
606.269	1754
606.321	1820
606.373	1770
606.425	1748
606.477	1780
606.529	1786
606.581	1834
606.633	1786
606.685	1780
606.737	1762
606.789	1808
606.84	1778
606.892	1778
606.944	1802
606.996	1774
607.048	1770
607.1	1774
607.152	1774
607.204	1766
607.256	1800
607.308	1746
607.359	1784
607.411	1750
607.463	1776
607.515	1784
607.567	1780
607.619	1778
607.671	1814
607.723	1798
607.775	1772
607.827	1832
607.878	1820
607.93	1766
607.982	1804
608.034	1806
608.086	1830
608.138	1794
608.19	1856
608.242	1792
608.294	1830
608.345	1800
608.397	1840
608.449	1818
608.501	1830
608.553	1832
608.605	1828
608.657	1862
608.709	1822
608.761	1842
608.812	1860
608.864	1810
608.916	1848
608.968	1834
609.02	1840
609.072	1832
609.124	1886
609.176	1882
609.228	1874
609.279	1852
609.331	1828
609.383	1814
609.435	1896
609.487	1866
609.539	1860
609.591	1850
609.643	1878
609.694	1868
609.746	1884
609.798	1902
609.85	1890
609.902	1854
609.954	1846
610.006	1894
610.058	1878
610.109	1872
610.161	1902
610.213	1888
610.265	1920
610.317	1856
610.369	1894
610.421	1916
610.473	1870
610.524	1926
610.576	1934
610.628	1948
610.68	1916
610.732	1944
610.784	1896
610.836	1948
610.887	1952
610.939	1936
610.991	1914
611.043	1914
611.095	1904
611.147	1908
611.199	1986
611.25	1936
611.302	1888
611.354	1918
611.406	1982
611.458	1952
611.51	1972
611.562	1924
611.614	1972
611.665	1924
611.717	1950
611.769	1922
611.821	1930
611.873	1960
611.925	1978
611.977	1924
612.028	2006
612.08	1932
612.132	1962
612.184	1994
612.236	1984
612.288	1978
612.339	1990
612.391	1958
612.443	1988
612.495	2012
612.547	2014
612.599	1982
612.651	1978
612.702	2002
612.754	2004
612.806	2036
612.858	2022
612.91	2006
612.962	2056
613.013	2026
613.065	2000
613.117	2050
613.169	2040
613.221	2074
613.273	2066
613.325	2050
613.376	2018
613.428	2040
613.48	2062
613.532	2034
613.584	2038
613.635	2076
613.687	2018
613.739	2036
613.791	2038
613.843	2048
613.895	2078
613.947	2072
613.998	2080
614.05	2116
614.102	2114
614.154	2038
614.206	2084
614.258	2112
614.309	2088
614.361	2066
614.413	2094
614.465	2096
614.517	2132
614.568	2132
614.62	2098
614.672	2172
614.724	2128
614.776	2098
614.828	2102
614.879	2122
614.931	2186
614.983	2188
615.035	2158
615.087	2168
615.139	2154
615.19	2150
615.242	2148
615.294	2146
615.346	2178
615.398	2184
615.449	2146
615.501	2198
615.553	2170
615.605	2226
615.657	2192
615.709	2214
615.76	2180
615.812	2194
615.864	2194
615.916	2228
615.968	2194
616.019	2191.58
616.071	2208.69
616.123	2231.85
616.175	2255.43
616.227	2206.94
616.278	2206.71
616.33	2209.88
616.382	2216.91
616.434	2204.76
616.486	2202.54
616.537	2244.44
616.589	2227.26
616.641	2216.2
616.693	2266.5
616.745	2261.77
616.797	2193.33
616.848	2271.59
616.9	2225.9
616.952	2261.5
617.004	2237.85
617.056	2261.5
617.107	2251.23
617.159	2247.77
617.211	2275.09
617.263	2244.22
617.315	2278.26
617.366	2289.95
617.418	2326.74
617.47	2299.25
617.522	2293.33
617.573	2284.42
617.625	2287.33
617.677	2304.86
617.729	2280.15
617.781	2315.43
617.832	2264.5
617.884	2303.72
617.936	2267.59
617.988	2351.91
618.04	2296.15
618.091	2322.01
618.143	2289.23
618.195	2317.57
618.247	2343.98
618.299	2328.8
618.35	2300.66
618.402	2307.53
618.454	2315.5
618.506	2326.84
618.557	2345.7
618.609	2369.02
618.661	2326.95
618.713	2332.59
618.765	2330.32
618.816	2309.43
618.868	2319.29
618.92	2361.64
618.972	2349.12
619.023	2387.28
619.075	2355.17
619.127	2374.53
619.179	2377.11
619.231	2387.5
619.282	2367.55
619.334	2379.37
619.386	2369.59
619.438	2372.04
619.49	2383.56
619.541	2386.19
619.593	2391.03
619.645	2384.04
619.697	2391.56
619.748	2396.76
619.8	2416.22
619.852	2416.56
619.904	2386.68
619.955	2407.19
620.007	2418.75
620.059	2396.53
620.111	2413.24
620.162	2400.59
620.214	2395.62
620.266	2413.4
620.318	2419
620.37	2413.59
620.421	2393.16
620.473	2392.39
620.525	2420.92
620.577	2421.08
620.628	2399.13
620.68	2419.04
620.732	2430.7
620.784	2424.43
620.835	2442.24
620.887	2415.76
620.939	2433.69
620.991	2442.91
621.042	2445.36
621.094	2442.64
621.146	2457.62
621.198	2414.82
621.249	2374.55
621.269	2370
621.321	2464
621.373	2486
621.425	2442
621.477	2386
621.529	2428
621.581	2452
621.633	2438
621.685	2440
621.737	2490
621.789	2436
621.841	2472
621.893	2406
621.945	2450
621.997	2436
622.049	2462
622.101	2460
622.153	2424
622.205	2446
622.257	2448
622.309	2460
622.361	2494
622.413	2454
622.465	2446
622.517	2484
622.569	2426
622.621	2488
622.673	2506
622.725	2496
622.776	2550
622.828	2516
622.88	2484
622.932	2442
622.984	2500
623.036	2518
623.088	2498
623.14	2482
623.192	2512
623.244	2502
623.296	2506
623.348	2514
623.4	2546
623.452	2410
623.504	2500
623.556	2534
623.608	2534
623.66	2496
623.712	2542
623.764	2460
623.816	2516
623.868	2530
623.92	2478
623.972	2546
624.024	2502
624.076	2522
624.128	2530
624.18	2524
624.232	2494
624.284	2558
624.336	2534
624.388	2534
624.44	2532
624.492	2532
624.544	2578
624.596	2502
624.648	2524
624.699	2568
624.751	2494
624.803	2570
624.855	2576
624.907	2530
624.959	2552
625.011	2616
625.063	2540
625.115	2528
625.167	2572
625.219	2568
625.271	2580
625.323	2564
625.375	2574
625.427	2582
625.479	2572
625.531	2600
625.583	2564
625.635	2608
625.687	2630
625.739	2556
625.791	2618
625.843	2616
625.895	2638
625.946	2628
625.998	2588
626.05	2644
626.102	2634
626.154	2584
626.206	2618
626.258	2626
626.31	2588
626.362	2616
626.414	2610
626.466	2712
626.518	2662
626.57	2594
626.622	2642
626.674	2680
626.726	2662
626.778	2660
626.83	2634
626.882	2706
626.934	2638
626.985	2628
627.037	2674
627.089	2710
627.141	2656
627.193	2714
627.245	2716
627.297	2702
627.349	2672
627.401	2698
627.453	2676
627.505	2692
627.557	2732
627.609	2678
627.661	2728
627.713	2668
627.765	2670
627.817	2752
627.868	2682
627.92	2744
627.972	2704
628.024	2696
628.076	2692
628.128	2722
628.18	2736
628.232	2750
628.284	2742
628.336	2774
628.388	2732
628.44	2798
628.492	2744
628.544	2782
628.596	2788
628.647	2820
628.699	2798
628.751	2786
628.803	2708
628.855	2768
628.907	2790
628.959	2798
629.011	2834
629.063	2778
629.115	2802
629.167	2840
629.219	2842
629.271	2760
629.322	2814
629.374	2838
629.426	2834
629.478	2810
629.53	2810
629.582	2860
629.634	2876
629.686	2760
629.738	2816
629.79	2876
629.842	2864
629.894	2900
629.945	2882
629.997	2814
630.049	2868
630.101	2830
630.153	2894
630.205	2856
630.257	2868
630.309	2860
630.361	2842
630.413	2830
630.465	2914
630.517	2848
630.568	2884
630.62	2894
630.672	2886
630.724	2904
630.776	2872
630.828	2938
630.88	2888
630.932	2940
630.984	2914
631.036	2916
631.088	2904
631.14	2902
631.191	2982
631.243	3002
631.295	2948
631.347	2990
631.399	2954
631.451	2948
631.503	2904
631.555	2938
631.607	2964
631.659	2976
631.71	2934
631.762	2958
631.814	2950
631.866	2978
631.918	3010
631.97	3098
632.022	2990
632.074	2890
632.126	3000
632.178	2988
632.229	3058
632.281	3018
632.333	3026
632.385	3068
632.437	3042
632.489	3082
632.541	3038
632.593	3040
632.645	3056
632.696	3080
632.748	3082
632.8	3072
632.852	3066
632.904	3066
632.956	3076
633.008	3094
633.06	3096
633.112	3060
633.164	3092
633.215	3138
633.267	3156
633.319	3128
633.371	3148
633.423	3132
633.475	3116
633.527	3172
633.579	3180
633.63	3192
633.682	3142
633.734	3100
633.786	3194
633.838	3160
633.89	3192
633.942	3192
633.994	3218
634.046	3210
634.097	3200
634.149	3286
634.201	3298
634.253	3210
634.305	3256
634.357	3206
634.409	3274
634.461	3254
634.512	3190
634.564	3248
634.616	3278
634.668	3362
634.72	3250
634.772	3334
634.824	3298
634.876	3296
634.927	3342
634.979	3310
635.031	3354
635.083	3386
635.135	3404
635.187	3414
635.239	3414
635.291	3436
635.342	3396
635.394	3454
635.446	3460
635.498	3450
635.55	3528
635.602	3484
635.654	3490
635.705	3514
635.757	3548
635.809	3528
635.861	3562
635.913	3536
635.965	3590
636.017	3618
636.068	3670
636.12	3678
636.172	3720
636.224	3682
636.276	3710
636.328	3748
636.38	3806
636.431	3762
636.483	3784
636.535	3838
636.587	3882
636.639	3950
636.691	3926
636.743	3942
636.794	3994
636.846	4040
636.898	4102
636.95	4136
637.002	4142
637.054	4232
637.106	4320
637.157	4320
637.209	4368
637.261	4450
637.313	4424
637.365	4428
637.417	4518
637.469	4562
637.52	4608
637.572	4668
637.624	4794
637.676	4708
637.728	4844
637.78	4774
637.831	4916
637.883	4902
637.935	4950
637.987	5060
638.039	5076
638.091	5012
638.143	5100
638.194	5168
638.246	5094
638.298	5096
638.35	5184
638.402	5128
638.454	5064
638.505	5062
638.557	5048
638.609	5072
638.661	4968
638.713	5068
638.765	4992
638.816	4974
638.868	4996
638.92	4920
638.972	4958
639.024	4834
639.076	4864
639.127	4806
639.179	4754
639.231	4794
639.283	4760
639.335	4710
639.387	4604
639.438	4612
639.49	4628
639.542	4596
639.594	4488
639.646	4500
639.698	4492
639.749	4482
639.801	4472
639.853	4478
639.905	4438
639.957	4400
640.008	4364
640.06	4412
640.112	4414
640.164	4386
640.216	4298
640.268	4220
640.319	4288
640.371	4272
640.423	4222
640.475	4284
640.527	4272
640.578	4186
640.63	4174
640.682	4232
640.734	4260
640.786	4232
640.838	4136
640.889	4176
640.941	4224
640.993	4164
641.045	4112
641.097	4122
641.148	4132
641.2	4150
641.252	4110
641.304	4144
641.356	4114
641.408	4140
641.459	4122
641.511	4106
641.563	4136
641.615	4056
641.667	4126
641.718	4132
641.77	4108
641.822	4108
641.874	4088
641.926	4054
641.977	4152
642.029	4106
642.081	4074
642.133	4076
642.185	4090
642.236	4118
642.288	4084
642.34	4106
642.392	4094
642.444	4098
642.495	4092
642.547	4126
642.599	4106
642.651	4110
642.703	4072
642.754	4080
642.806	3982
642.858	4056
642.91	4094
642.962	4086
643.013	4124
643.065	4030
643.117	4110
643.169	4086
643.221	4042
643.272	4074
643.324	4082
643.376	4056
643.428	4148
643.479	4084
643.531	4126
643.583	4152
643.635	4126
643.687	4096
643.738	4114
643.79	4144
643.842	4142
643.894	4142
643.946	4122
643.997	4152
644.049	4088
644.101	4078
644.153	4138
644.205	4124
644.256	4160
644.308	4230
644.36	4124
644.412	4212
644.463	4188
644.515	4124
644.567	4246
644.619	4200
644.671	4204
644.722	4238
644.774	4190
644.826	4144
644.878	4220
644.929	4260
644.981	4190
645.033	4168
645.085	4190
645.136	4158
645.188	4228
645.24	4192
645.292	4206
645.344	4184
645.395	4218
645.447	4248
645.499	4320
645.551	4238
645.602	4198
645.654	4270
645.706	4258
645.758	4206
645.81	4286
645.861	4204
645.913	4262
645.965	4286
646.017	4316
646.068	4336
646.12	4290
646.172	4230
646.224	4270
646.275	4278
646.327	4292
646.379	4212
646.431	4276
646.482	4284
646.534	4320
646.586	4324
646.638	4324
646.689	4314
646.741	4296
646.793	4392
646.845	4282
646.896	4296
646.948	4256
647	4356
647.052	4270
647.104	4284
647.155	4328
647.207	4294
647.259	4310
647.31	4320
647.362	4328
647.414	4274
647.466	4400
647.518	4362
647.569	4444
647.621	4364
647.673	4430
647.724	4460
647.776	4392
647.828	4410
647.88	4388
647.931	4394
647.983	4426
648.035	4374
648.087	4414
648.138	4428
648.19	4464
648.242	4442
648.294	4400
648.345	4424
648.397	4344
648.449	4452
648.501	4412
648.552	4458
648.604	4452
648.656	4496
648.708	4462
648.759	4454
648.811	4476
648.863	4458
648.915	4470
648.966	4530
649.018	4526
649.07	4502
649.121	4472
649.173	4604
649.225	4538
649.277	4500
649.328	4568
649.38	4472
649.432	4558
649.484	4608
649.535	4532
649.587	4544
649.639	4636
649.69	4556
649.742	4576
649.794	4646
649.846	4554
649.897	4550
649.949	4570
650.001	4636
650.053	4612
650.104	4688
650.156	4580
650.208	4658
650.259	4686
650.311	4692
650.363	4636
650.415	4706
650.466	4666
650.518	4666
650.57	4664
650.621	4746
650.673	4748
650.725	4686
650.777	4720
650.828	4758
650.88	4704
650.932	4702
650.984	4772
651.035	4780
651.087	4720
651.139	4812
651.19	4708
651.242	4810
651.294	4732
651.345	4738
651.397	4798
651.449	4856
651.501	4848
651.552	4738
651.604	4866
651.656	4820
651.707	4804
651.759	4878
651.811	4906
651.863	4808
651.914	4810
651.966	4844
652.018	4898
652.069	4936
652.121	4898
652.173	4878
652.224	4856
652.276	4908
652.328	4836
652.38	4924
652.431	4904
652.483	4922
652.535	4942
652.586	4984
652.638	4992
652.69	4918
652.741	4934
652.793	5014
652.845	4946
652.897	5008
652.948	4968
653	4978
653.052	5020
653.103	4982
653.155	5012
653.207	5038
653.258	5044
653.31	5000
653.362	4982
653.413	5086
653.465	5020
653.517	5056
653.568	5066
653.62	5074
653.672	5106
653.724	5156
653.775	5120
653.827	5084
653.879	5184
653.93	5076
653.982	5146
654.034	5192
654.085	5180
654.137	5212
654.189	5180
654.24	5146
654.292	5154
654.344	5162
654.395	5186
654.447	5212
654.499	5234
654.55	5234
654.602	5244
654.654	5294
654.705	5282
654.757	5348
654.809	5356
654.86	5292
654.912	5400
654.964	5330
655.016	5408
655.067	5324
655.119	5314
655.17	5346
655.222	5416
655.274	5416
655.326	5424
655.377	5418
655.429	5376
655.481	5472
655.532	5464
655.584	5440
655.635	5498
655.687	5556
655.739	5498
655.79	5498
655.842	5552
655.894	5536
655.945	5566
655.997	5570
656.049	5556
656.1	5586
656.152	5694
656.204	5536
656.255	5622
656.307	5660
656.359	5640
656.41	5674
656.462	5676
656.514	5680
656.565	5768
656.617	5694
656.669	5780
656.72	5778
656.772	5790
656.824	5734
656.875	5834
656.927	5718
656.979	5842
657.03	5840
657.082	5758
657.134	5802
657.185	5800
657.237	5922
657.288	5850
657.34	5806
657.392	5832
657.443	5922
657.495	5932
657.547	5858
657.598	5900
657.65	5920
657.702	5982
657.753	5932
657.805	5956
657.857	5964
657.908	5938
657.96	5878
658.011	5952
658.063	5928
658.115	6022
658.166	5962
658.218	6022
658.27	6018
658.321	6026
658.373	6022
658.425	6076
658.476	5980
658.528	6014
658.579	6112
658.631	6110
658.683	6096
658.734	6108
658.786	6156
658.838	6130
658.889	6074
658.941	6126
658.992	6144
659.044	6162
659.096	6122
659.147	6214
659.199	6160
659.251	6150
659.302	6198
659.354	6174
659.406	6176
659.457	6186
659.509	6178
659.56	6180
659.612	6124
659.664	6198
659.715	6184
659.767	6144
659.818	6234
659.87	6212
659.922	6096
659.973	6234
660.025	6244
660.077	6112
660.128	6136
660.18	6240
660.231	6142
660.283	6248
660.335	6214
660.386	6184
660.438	6224
660.49	6260
660.541	6142
660.593	6224
660.644	6226
660.696	6234
660.748	6210
660.799	6150
660.851	6172
660.902	6256
660.954	6260
661.006	6264
661.057	6272
661.109	6228
661.16	6212
661.212	6164
661.264	6168
661.315	6228
661.367	6262
661.418	6266
661.47	6196
661.522	6240
661.573	6204
661.625	6228
661.676	6124
661.728	6188
661.78	6158
661.831	6112
661.883	6240
661.934	6226
661.986	6232
662.038	6240
662.089	6220
662.141	6166
662.192	6214
662.244	6136
662.296	6284
662.347	6194
662.399	6232
662.45	6194
662.502	6194
662.554	6222
662.605	6076
662.657	6254
662.708	6250
662.76	6120
662.811	6140
662.863	6250
662.915	6214
662.966	6224
663.018	6252
663.069	6214
663.121	6188
663.173	6178
663.224	6116
663.276	6218
663.327	6244
663.379	6222
663.43	6248
663.482	6202
663.534	6142
663.585	6212
663.637	6090
663.688	6192
663.74	6115.03
663.792	6174.33
663.843	6246.21
663.895	6117.52
663.946	6134.77
663.998	6219.45
664.049	6275.5
664.101	6227.66
664.153	6183.97
664.204	6195.17
664.256	6275.26
664.307	6178.79
664.359	6218.96
664.41	6219.61
664.462	6238.16
664.513	6268.71
664.565	6253.63
664.617	6262.21
664.668	6313.97
664.72	6213.05
664.771	6290.15
664.823	6231.47
664.874	6233.12
664.926	6198.36
664.978	6208.14
665.029	6218.51
665.081	6173.62
665.132	6273.05
665.184	6257.76
665.235	6206.35
665.287	6233.24
665.339	6273.39
665.39	6232.35
665.442	6302.57
665.493	6218.54
665.545	6265.62
665.596	6247.3
665.648	6170.13
665.699	6262.3
665.751	6262.21
665.802	6175.7
665.854	6262.49
665.906	6237.54
665.957	6271.5
666.009	6217.34
666.06	6227.16
666.112	6219.96
666.163	6265.45
666.215	6315.44
666.266	6232.37
666.318	6259.3
666.37	6201.06
666.421	6198.1
666.473	6166.87
666.524	6231.99
666.576	6230.34
666.627	6251.05
666.679	6235.69
666.73	6185.45
666.782	6185.44
666.833	6224.11
666.885	6243.15
666.937	6209.51
666.988	6219.93
667.04	6249.33
667.091	6244.76
667.143	6212.27
667.194	6237.8
667.246	6209.36
667.297	6215.57
667.349	6227.29
667.4	6219.98
667.452	6228.67
667.503	6226.34
667.555	6238.18
667.607	6236.01
667.658	6241.86
667.71	6215.86
667.761	6251.48
667.813	6236.32
667.864	6215.1
667.916	6258.35
667.967	6258.02
668.019	6235.24
668.07	6188.05
668.122	6159.83
668.173	6173.18
668.225	6203.41
668.276	6318.14
668.328	6310.03
668.379	6255.14
668.431	6237.92
668.482	6190.34
668.534	6257.97
668.586	6285.1
668.637	6263.13
668.689	6189.96
668.74	6196.18
668.792	6201.67
668.843	6249.55
668.895	6261.76
668.935	6262
668.987	6320
669.038	6248
669.09	6242
669.142	6278
669.194	6242
669.245	6328
669.297	6280
669.349	6278
669.401	6268
669.453	6302
669.504	6196
669.556	6284
669.608	6292
669.66	6234
669.711	6194
669.763	6184
669.815	6224
669.867	6258
669.918	6214
669.97	6292
670.022	6234
670.074	6264
670.125	6286
670.177	6204
670.229	6226
670.281	6276
670.332	6212
670.384	6254
670.436	6238
670.488	6240
670.539	6162
670.591	6214
670.643	6252
670.695	6210
670.747	6258
670.798	6216
670.85	6178
670.902	6232
670.953	6220
671.005	6248
671.057	6234
671.109	6218
671.161	6308
671.212	6328
671.264	6218
671.316	6266
671.367	6164
671.419	6334
671.471	6218
671.523	6252
671.575	6338
671.626	6224
671.678	6260
671.73	6228
671.781	6300
671.833	6260
671.885	6262
671.937	6202
671.988	6306
672.04	6268
672.092	6304
672.144	6370
672.195	6338
672.247	6230
672.299	6374
672.351	6396
672.402	6284
672.454	6292
672.506	6348
672.558	6264
672.609	6324
672.661	6240
672.713	6334
672.765	6274
672.816	6360
672.868	6374
672.92	6284
672.971	6286
673.023	6424
673.075	6350
673.127	6404
673.178	6352
673.23	6402
673.282	6334
673.334	6326
673.385	6328
673.437	6430
673.489	6374
673.54	6372
673.592	6312
673.644	6360
673.696	6484
673.747	6348
673.799	6422
673.851	6456
673.903	6382
673.954	6440
674.006	6482
674.058	6500
674.109	6538
674.161	6468
674.213	6486
674.265	6356
674.316	6494
674.368	6520
674.42	6500
674.471	6598
674.523	6550
674.575	6544
674.627	6526
674.678	6500
674.73	6550
674.782	6512
674.833	6560
674.885	6604
674.937	6602
674.989	6478
675.04	6564
675.092	6576
675.144	6552
675.195	6604
675.247	6554
675.299	6674
675.351	6634
675.402	6594
675.454	6620
675.506	6594
675.557	6564
675.609	6638
675.661	6574
675.713	6636
675.764	6646
675.816	6580
675.868	6536
675.919	6622
675.971	6596
676.023	6666
676.074	6620
676.126	6628
676.178	6638
676.23	6614
676.281	6722
676.333	6650
676.385	6610
676.436	6728
676.488	6698
676.54	6644
676.591	6748
676.643	6688
676.695	6688
676.747	6720
676.798	6680
676.85	6622
676.902	6766
676.953	6660
677.005	6664
677.057	6678
677.108	6688
677.16	6718
677.212	6700
677.263	6680
677.315	6686
677.367	6718
677.419	6718
677.47	6640
677.522	6690
677.574	6734
677.625	6656
677.677	6686
677.729	6718
677.78	6712
677.832	6636
677.884	6734
677.935	6704
677.987	6616
678.039	6706
678.091	6732
678.142	6660
678.194	6726
678.246	6756
678.297	6582
678.349	6652
678.401	6708
678.452	6744
678.504	6700
678.556	6708
678.607	6712
678.659	6708
678.711	6690
678.762	6730
678.814	6718
678.866	6778
678.917	6668
678.969	6732
679.021	6726
679.072	6692
679.124	6698
679.176	6702
679.227	6726
679.279	6750
679.331	6744
679.382	6686
679.434	6696
679.486	6694
679.537	6638
679.589	6710
679.641	6760
679.692	6736
679.744	6662
679.796	6760
679.847	6760
679.899	6678
679.951	6690
680.003	6746
680.054	6748
680.106	6714
680.157	6800
680.209	6736
680.261	6770
680.312	6816
680.364	6688
680.416	6768
680.467	6670
680.519	6762
680.571	6790
680.622	6726
680.674	6866
680.726	6792
680.777	6820
680.829	6784
680.881	6846
680.932	6848
680.984	6734
681.036	6742
681.087	6828
681.139	6872
681.191	6844
681.242	6864
681.294	6858
681.346	6854
681.397	6856
681.449	6930
681.501	6920
681.552	6956
681.604	6816
681.656	6860
681.707	6822
681.759	6768
681.81	6956
681.862	7010
681.914	6866
681.965	6892
682.017	6986
682.069	6872
682.12	7012
682.172	6892
682.224	6898
682.275	6942
682.327	6912
682.379	6904
682.43	6852
682.482	6986
682.533	6944
682.585	6956
682.637	6898
682.688	6864
682.74	6934
682.792	6900
682.843	6888
682.895	6948
682.947	6914
682.998	6974
683.05	6894
683.102	6962
683.153	6942
683.205	6954
683.256	7000
683.308	6932
683.36	6924
683.411	6956
683.463	6990
683.515	6982
683.566	6978
683.618	6954
683.669	6948
683.721	6932
683.773	6860
683.824	6964
683.876	6904
683.928	6956
683.979	6830
684.031	6968
684.082	6968
684.134	6928
684.186	6868
684.237	7018
684.289	6896
684.341	6892
684.392	6952
684.444	6852
684.495	6908
684.547	6914
684.599	6872
684.65	6880
684.702	6870
684.754	6866
684.805	6894
684.857	6928
684.908	6898
684.96	6914
685.012	6888
685.063	6818
685.115	6884
685.166	6872
685.218	6806
685.27	6854
685.321	6914
685.373	6856
685.424	6818
685.476	6838
685.528	6732
685.579	6798
685.631	6764
685.683	6832
685.734	6830
685.786	6874
685.837	6864
685.889	6790
685.941	6832
685.992	6858
686.044	6786
686.095	6838
686.147	6734
686.199	6778
686.25	6814
686.302	6852
686.353	6808
686.405	6768
686.457	6748
686.508	6788
686.56	6848
686.611	6840
686.663	6754
686.715	6806
686.766	6716
686.818	6778
686.869	6808
686.921	6816
686.973	6744
687.024	6734
687.076	6798
687.127	6632
687.179	6736
687.231	6726
687.282	6810
687.334	6754
687.385	6770
687.437	6752
687.489	6792
687.54	6752
687.592	6716
687.643	6792
687.695	6754
687.747	6664
687.798	6654
687.85	6740
687.901	6712
687.953	6784
688.004	6716
688.056	6788
688.108	6726
688.159	6718
688.211	6820
688.262	6752
688.314	6670
688.366	6844
688.417	6746
688.469	6674
688.52	6742
688.572	6650
688.623	6788
688.675	6662
688.727	6754
688.778	6820
688.83	6780
688.881	6756
688.933	6686
688.984	6676
689.036	6768
689.088	6712
689.139	6622
689.191	6634
689.242	6728
689.294	6736
689.346	6674
689.397	6680
689.449	6708
689.5	6580
689.552	6710
689.603	6678
689.655	6694
689.706	6548
689.758	6600
689.81	6654
689.861	6684
689.913	6772
689.964	6696
690.016	6728
690.067	6724
690.119	6742
690.171	6704
690.222	6700
690.274	6680
690.325	6664
690.377	6526
690.428	6622
690.48	6764
690.531	6692
690.583	6574
690.635	6734
690.686	6640
690.738	6650
690.789	6618
690.841	6628
690.892	6598
690.944	6630
690.996	6688
691.047	6614
691.099	6588
691.15	6618
691.202	6528
691.253	6558
691.305	6578
691.356	6606
691.408	6566
691.459	6568
691.511	6610
691.563	6564
691.614	6544
691.666	6570
691.717	6554
691.769	6588
691.82	6550
691.872	6596
691.923	6562
691.975	6456
692.026	6540
692.078	6476
692.13	6614
692.181	6452
692.233	6558
692.284	6566
692.336	6458
692.387	6426
692.439	6528
692.49	6458
692.542	6450
692.593	6580
692.645	6442
692.697	6568
692.748	6504
692.8	6464
692.851	6556
692.903	6514
692.954	6528
693.006	6454
693.057	6420
693.109	6504
693.16	6392
693.212	6454
693.263	6450
693.315	6492
693.366	6436
693.418	6446
693.47	6406
693.521	6448
693.573	6432
693.624	6400
693.676	6470
693.727	6508
693.779	6440
693.83	6446
693.882	6368
693.933	6418
693.985	6476
694.036	6374
694.088	6328
694.139	6402
694.191	6386
694.242	6330
694.294	6352
694.345	6448
694.397	6496
694.448	6448
694.5	6434
694.552	6438
694.603	6256
694.655	6410
694.706	6374
694.758	6338
694.809	6410
694.861	6368
694.912	6298
694.964	6432
695.015	6334
695.067	6372
695.118	6306
695.17	6440
695.221	6364
695.273	6352
695.324	6350
695.376	6388
695.427	6420
695.479	6324
695.53	6378
695.582	6286
695.633	6370
695.685	6370
695.736	6282
695.788	6368
695.839	6272
695.891	6288
695.942	6320
695.994	6300
696.045	6282
696.097	6332
696.148	6316
696.2	6308
696.251	6228
696.303	6262
696.354	6324
696.406	6230
696.457	6266
696.509	6242
696.56	6328
696.612	6268
696.663	6292
696.715	6252
696.766	6164
696.818	6252
696.869	6282
696.921	6260
696.972	6242
697.024	6276
697.075	6326
697.127	6176
697.178	6252
697.23	6252
697.281	6184
697.333	6258
697.384	6150
697.436	6168
697.487	6172
697.539	6140
697.59	6100
697.642	6206
697.693	6128
697.745	6178
697.796	6192
697.847	6072
697.899	6162
697.95	6126
698.002	6124
698.053	6202
698.105	6204
698.156	6214
698.208	6096
698.259	6192
698.311	6072
698.362	6180
698.414	6138
698.465	5994
698.517	6036
698.568	6066
698.62	6100
698.671	6092
698.723	6086
698.774	6118
698.826	6060
698.877	6048
698.928	6070
698.98	6062
699.031	6054
699.083	5992
699.134	6056
699.186	6046
699.237	6028
699.289	6034
699.34	6004
699.392	6070
699.443	6068
699.495	6080
699.546	5926
699.598	6000
699.649	5996
699.7	6038
699.752	6024
699.803	6006
699.855	6012
699.906	5974
699.958	6108
700.009	5970
700.061	5960
700.112	6060
700.164	5930
700.215	5972
700.266	5952
700.318	5980
700.369	5976
700.421	5998
700.472	5960
700.524	6044
700.575	5992
700.627	6000
700.678	5976
700.73	5996
700.781	5918
700.832	5926
700.884	5932
700.935	5954
700.987	6040
701.038	5958
701.09	5898
701.141	5940
701.193	5958
701.244	5958
701.295	5922
701.347	6044
701.398	5992
701.45	5996
701.501	5944
701.553	6032
701.604	5976
701.656	5930
701.707	5968
701.758	5968
701.81	5900
701.861	5976
701.913	5912
701.964	5962
702.016	5946
702.067	5968
702.119	5892
702.17	5932
702.221	5902
702.273	5954
702.324	5904
702.376	5930
702.427	5956
702.479	5950
702.53	5994
702.581	5920
702.633	5968
702.684	5962
702.736	5990
702.787	5888
702.839	5972
702.89	5980
702.941	5934
702.993	5860
703.044	5936
703.096	5936
703.147	5964
703.199	5974
703.25	6018
703.301	5918
703.353	5894
703.404	5908
703.456	5982
703.507	5968
703.558	5828
703.61	5972
703.661	5980
703.713	5996
703.764	5870
703.816	5860
703.867	5894
703.918	5868
703.97	5826
704.021	5892
704.073	5950
704.124	6016
704.175	5932
704.227	5870
704.278	5910
704.33	5854
704.381	5950
704.432	5900
704.484	5832
704.535	5838
704.587	5868
704.638	5898
704.69	5948
704.741	5892
704.792	5842
704.844	5840
704.895	5810
704.947	5848
704.998	5834
705.049	5896
705.101	5818
705.152	5828
705.204	5812
705.255	5816
705.306	5834
705.358	5776
705.409	5754
705.461	5736
705.512	5752
705.563	5802
705.615	5784
705.666	5772
705.718	5746
705.769	5780
705.82	5698
705.872	5778
705.923	5728
705.974	5792
706.026	5750
706.077	5802
706.129	5700
706.18	5712
706.231	5752
706.283	5762
706.334	5672
706.386	5758
706.437	5646
706.488	5706
706.54	5746
706.591	5730
706.643	5670
706.694	5646
706.745	5704
706.797	5622
706.848	5680
706.899	5668
706.951	5644
707.002	5606
707.054	5696
707.105	5592
707.156	5684
707.208	5612
707.259	5698
707.31	5658
707.362	5568
707.413	5578
707.465	5576
707.516	5622
707.567	5594
707.619	5596
707.67	5616
707.721	5636
707.773	5566
707.824	5602
707.876	5550
707.927	5590
707.978	5632
708.03	5518
708.081	5586
708.132	5506
708.184	5544
708.235	5434
708.287	5570
708.338	5476
708.389	5608
708.441	5548
708.492	5614
708.543	5396
708.595	5564
708.646	5482
708.697	5518
708.749	5550
708.8	5476
708.852	5508
708.903	5484
708.954	5560
709.006	5570
709.057	5534
709.108	5512
709.16	5530
709.211	5534
709.262	5482
709.314	5460
709.365	5440
709.416	5520
709.468	5428
709.519	5494
709.57	5476
709.622	5542
709.673	5496
709.725	5526
709.776	5500
709.827	5460
709.879	5454
709.93	5524
709.981	5440
710.033	5464
710.084	5472
710.135	5450
710.187	5450
710.238	5484
710.289	5454
710.341	5444
710.392	5476
710.443	5462
710.495	5434
710.546	5444
710.597	5406
710.649	5430
710.7	5412
710.751	5428
710.803	5510
710.854	5364
710.905	5410
710.957	5320
711.008	5396
711.059	5436
711.111	5416
711.162	5428
711.213	5366
711.265	5362.68
711.316	5357.46
711.367	5355.07
711.419	5370.2
711.47	5426.94
711.521	5391.29
711.573	5331.56
711.624	5374.53
711.675	5338.65
711.727	5416.6
711.778	5364.62
711.829	5362.23
711.881	5389.09
711.932	5332.91
711.983	5376.02
712.035	5345.16
712.086	5357.98
712.137	5301.1
712.189	5283.25
712.24	5380.72
712.291	5241.7
712.343	5289.59
712.394	5337.16
712.445	5304.18
712.496	5311.69
712.548	5267.92
712.599	5315.45
712.65	5274.32
712.702	5267.35
712.753	5315.7
712.804	5245.53
712.856	5302.59
712.907	5245.23
712.958	5278.34
713.01	5250.31
713.061	5265.46
713.112	5214.73
713.164	5224.92
713.215	5265.74
713.266	5217.51
713.317	5235.59
713.369	5179.43
713.42	5191.15
713.471	5210.53
713.523	5211.54
713.574	5218.73
713.625	5214.31
713.677	5163.39
713.728	5159.85
713.779	5227.26
713.831	5174.68
713.882	5178.85
713.933	5190
713.984	5122.94
714.036	5113.92
714.087	5124.49
714.138	5106.06
714.19	5135.17
714.241	5105.63
714.292	5089.34
714.343	5101.45
714.395	5110.83
714.446	5088.43
714.497	5151.87
714.549	5077.27
714.6	5081.95
714.651	5089.38
714.703	5089.36
714.754	5126.23
714.805	5082.75
714.856	5053.05
714.908	5053.39
714.959	5032.43
715.01	5050.01
715.062	5043.78
715.113	5038.74
715.164	5044.28
715.215	5052.77
715.267	5010.23
715.318	5012.96
715.369	5054.88
715.421	5007.55
715.472	5004.51
715.523	5021.6
715.574	5021.14
715.626	4998.2
715.677	5049.35
715.728	4986.72
715.779	4978.93
715.831	5005.33
715.882	5005.13
715.933	5017.17
715.985	5000.3
716.036	4989.38
716.087	4945.15
716.138	4911.24
716.19	4974.02
716.241	4958.59
716.292	5001.18
716.343	4973.29
716.395	4954.45
716.433	4960
716.485	5000
716.536	4914
716.588	4960
716.639	4926
716.691	4924
716.742	4958
716.794	4914
716.845	4896
716.897	4950
716.948	4940
717	4888
717.052	4832
717.103	4850
717.155	4844
717.206	4854
717.258	4922
717.309	4906
717.361	4884
717.412	4872
717.464	4886
717.515	4916
717.567	4824
717.618	4836
717.67	4818
717.721	4900
717.773	4892
717.824	4846
717.876	4796
717.927	4832
717.979	4808
718.03	4806
718.082	4834
718.133	4800
718.185	4802
718.237	4896
718.288	4906
718.34	4804
718.391	4748
718.443	4758
718.494	4794
718.546	4732
718.597	4826
718.649	4764
718.7	4790
718.752	4744
718.803	4792
718.855	4776
718.906	4766
718.958	4820
719.009	4766
719.061	4748
719.112	4758
719.164	4710
719.215	4774
719.267	4756
719.318	4716
719.37	4748
719.421	4666
719.473	4670
719.524	4714
719.576	4698
719.627	4664
719.679	4642
719.73	4720
719.782	4714
719.833	4716
719.885	4618
719.936	4672
719.988	4646
720.039	4614
720.091	4648
720.142	4648
720.194	4630
720.245	4618
720.297	4618
720.348	4658
720.4	4610
720.451	4648
720.503	4592
720.554	4610
720.606	4598
720.657	4558
720.709	4592
720.76	4586
720.812	4546
720.863	4556
720.915	4572
720.966	4578
721.018	4562
721.069	4544
721.121	4598
721.172	4558
721.224	4564
721.275	4536
721.327	4604
721.378	4514
721.43	4496
721.481	4462
721.532	4528
721.584	4532
721.635	4452
721.687	4364
721.738	4498
721.79	4478
721.841	4514
721.893	4442
721.944	4468
721.996	4470
722.047	4492
722.099	4382
722.15	4426
722.202	4442
722.253	4434
722.305	4446
722.356	4400
722.408	4480
722.459	4470
722.511	4430
722.562	4418
722.614	4342
722.665	4430
722.716	4308
722.768	4416
722.819	4366
722.871	4352
722.922	4364
722.974	4296
723.025	4354
723.077	4386
723.128	4354
723.18	4374
723.231	4320
723.283	4352
723.334	4376
723.386	4270
723.437	4296
723.488	4358
723.54	4290
723.591	4238
723.643	4238
723.694	4314
723.746	4338
723.797	4350
723.849	4234
723.9	4308
723.952	4266
724.003	4272
724.055	4276
724.106	4310
724.157	4264
724.209	4316
724.26	4276
724.312	4290
724.363	4282
724.415	4226
724.466	4196
724.518	4214
724.569	4188
724.621	4328
724.672	4238
724.723	4232
724.775	4184
724.826	4270
724.878	4272
724.929	4234
724.981	4142
725.032	4230
725.084	4152
725.135	4164
725.187	4150
725.238	4218
725.289	4172
725.341	4218
725.392	4184
725.444	4170
725.495	4176
725.547	4146
725.598	4186
725.65	4138
725.701	4158
725.752	4156
725.804	4136
725.855	4116
725.907	4154
725.958	4182
726.01	4194
726.061	4144
726.112	4168
726.164	4160
726.215	4138
726.267	4154
726.318	4054
726.37	4136
726.421	3996
726.473	4122
726.524	4144
726.575	4062
726.627	4032
726.678	4108
726.73	4044
726.781	4028
726.833	4116
726.884	4020
726.935	4054
726.987	4094
727.038	4042
727.09	4088
727.141	4014
727.193	3998
727.244	4016
727.295	3978
727.347	4082
727.398	4076
727.45	3996
727.501	4010
727.552	4064
727.604	3982
727.655	3978
727.707	3968
727.758	3964
727.81	3946
727.861	3966
727.912	3940
727.964	3886
728.015	3952
728.067	3952
728.118	3914
728.17	3976
728.221	3886
728.272	3926
728.324	3890
728.375	3930
728.427	3912
728.478	3916
728.529	3914
728.581	3908
728.632	3870
728.684	3916
728.735	3872
728.786	3844
728.838	3884
728.889	3888
728.941	3832
728.992	3848
729.044	3856
729.095	3770
729.146	3814
729.198	3850
729.249	3836
729.301	3798
729.352	3790
729.403	3822
729.455	3794
729.506	3764
729.558	3776
729.609	3736
729.66	3794
729.712	3758
729.763	3794
729.815	3760
729.866	3726
729.917	3698
729.969	3728
730.02	3740
730.072	3732
730.123	3710
730.174	3704
730.226	3694
730.277	3734
730.329	3648
730.38	3724
730.431	3736
730.483	3710
730.534	3712
730.586	3696
730.637	3666
730.688	3644
730.74	3674
730.791	3636
730.842	3624
730.894	3682
730.945	3668
730.997	3648
731.048	3710
731.099	3618
731.151	3666
731.202	3682
731.254	3612
731.305	3666
731.356	3630
731.408	3566
731.459	3592
731.51	3600
731.562	3608
731.613	3616
731.665	3640
731.716	3594
731.767	3650
731.819	3526
731.87	3620
731.922	3592
731.973	3628
732.024	3622
732.076	3556
732.127	3590
732.178	3600
732.23	3570
732.281	3618
732.333	3582
732.384	3552
732.435	3590
732.487	3610
732.538	3576
732.589	3518
732.641	3538
732.692	3574
732.744	3580
732.795	3542
732.846	3528
732.898	3558
732.949	3488
733	3542
733.052	3572
733.103	3560
733.154	3502
733.206	3536
733.257	3492
733.309	3546
733.36	3510
733.411	3476
733.463	3504
733.514	3522
733.565	3516
733.617	3524
733.668	3472
733.719	3524
733.771	3496
733.822	3494
733.873	3468
733.925	3520
733.976	3492
734.028	3502
734.079	3426
734.13	3476
734.182	3572
734.233	3446
734.284	3478
734.336	3488
734.387	3500
734.438	3542
734.49	3494
734.541	3490
734.592	3466
734.644	3508
734.695	3502
734.747	3488
734.798	3498
734.849	3498
734.901	3520
734.952	3402
735.003	3482
735.055	3498
735.106	3488
735.157	3498
735.209	3456
735.26	3458
735.311	3476
735.363	3406
735.414	3444
735.465	3400
735.517	3380
735.568	3436
735.619	3466
735.671	3430
735.722	3440
735.773	3394
735.825	3454
735.876	3410
735.927	3484
735.979	3432
736.03	3426
736.081	3414
736.133	3418
736.184	3468
736.235	3450
736.287	3406
736.338	3428
736.389	3478
736.441	3440
736.492	3374
736.543	3494
736.595	3416
736.646	3434
736.697	3482
736.749	3430
736.8	3494
736.851	3486
736.903	3450
736.954	3438
737.005	3444
737.057	3488
737.108	3452
737.159	3474
737.211	3448
737.262	3462
737.313	3390
737.365	3432
737.416	3468
737.467	3478
737.518	3426
737.57	3490
737.621	3502
737.672	3398
737.724	3474
737.775	3472
737.826	3450
737.878	3438
737.929	3428
737.98	3460
738.032	3440
738.083	3454
738.134	3434
738.186	3428
738.237	3466
738.288	3426
738.339	3444
738.391	3436
738.442	3374
738.493	3422
738.545	3402
738.596	3458
738.647	3474
738.699	3444
738.75	3384
738.801	3418
738.853	3396
738.904	3402
738.955	3390
739.006	3354
739.058	3360
739.109	3362
739.16	3402
739.212	3354
739.263	3396
739.314	3370
739.366	3316
739.417	3332
739.468	3338
739.519	3396
739.571	3368
739.622	3318
739.673	3354
739.725	3372
739.776	3320
739.827	3366
739.878	3286
739.93	3310
739.981	3270
740.032	3276
740.084	3334
740.135	3328
740.186	3290
740.237	3258
740.289	3274
740.34	3288
740.391	3316
740.443	3276
740.494	3288
740.545	3252
740.596	3212
740.648	3212
740.699	3286
740.75	3250
740.802	3216
740.853	3210
740.904	3222
740.956	3208
741.007	3206
741.058	3238
741.109	3236
741.161	3222
741.212	3194
741.263	3188
741.314	3204
741.366	3206
741.417	3224
741.468	3208
741.52	3248
741.571	3266
741.622	3218
741.673	3154
741.725	3162
741.776	3198
741.827	3174
741.878	3198
741.93	3186
741.981	3140
742.032	3188
742.083	3194
742.135	3150
742.186	3176
742.237	3154
742.289	3122
742.34	3130
742.391	3166
742.442	3108
742.494	3096
742.545	3126
742.596	3146
742.647	3116
742.699	3090
742.75	3104
742.801	3046
742.852	3130
742.904	3158
742.955	3104
743.006	3092
743.057	3170
743.109	3110
743.16	3114
743.211	3078
743.263	3074
743.314	3040
743.365	3094
743.416	2982
743.468	3104
743.519	3048
743.57	3048
743.621	3070
743.672	3048
743.724	3012
743.775	3050
743.826	2988
743.878	3060
743.929	3008
743.98	3080
744.031	3016
744.083	3026
744.134	3056
744.185	3008
744.236	3004
744.287	3002
744.339	3010
744.39	3006
744.441	2948
744.492	2948
744.544	3002
744.595	2972
744.646	2998
744.697	2988
744.749	2948
744.8	2998
744.851	2980
744.902	3032
744.954	2994
745.005	2920
745.056	2952
745.107	2954
745.159	2950
745.21	2984
745.261	2932
745.312	2990
745.363	2966
745.415	2928
745.466	2976
745.517	2942
745.568	2960
745.62	2972
745.671	2944
745.722	2922
745.773	2922
745.824	2916
745.876	2936
745.927	2920
745.978	2884
746.029	2928
746.081	2920
746.132	2870
746.183	2910
746.234	2856
746.285	2890
746.337	2870
746.388	2860
746.439	2884
746.49	2876
746.542	2870
746.593	2838
746.644	2862
746.695	2876
746.746	2934
746.798	2856
746.849	2834
746.9	2896
746.951	2860
747.003	2838
747.054	2858
747.105	2820
747.156	2856
747.207	2898
747.259	2832
747.31	2870
747.361	2838
747.412	2854
747.463	2864
747.515	2836
747.566	2922
747.617	2800
747.668	2826
747.719	2872
747.771	2818
747.822	2816
747.873	2824
747.924	2844
747.975	2824
748.027	2764
748.078	2782
748.129	2764
748.18	2770
748.231	2788
748.283	2836
748.334	2742
748.385	2808
748.436	2776
748.487	2810
748.539	2772
748.59	2792
748.641	2758
748.692	2788
748.743	2804
748.795	2794
748.846	2772
748.897	2748
748.948	2786
748.999	2788
749.05	2764
749.102	2778
749.153	2780
749.204	2748
749.255	2806
749.306	2812
749.358	2748
749.409	2774
749.46	2746
749.511	2768
749.562	2728
749.614	2742
749.665	2732
749.716	2730
749.767	2760
749.818	2710
749.869	2686
749.921	2728
749.972	2734
750.023	2770
750.074	2732
750.125	2776
750.177	2734
750.228	2748
750.279	2738
750.33	2710
750.381	2722
750.432	2682
750.484	2680
750.535	2744
750.586	2624
750.637	2684
750.688	2634
750.739	2662
750.791	2686
750.842	2726
750.893	2732
750.944	2700
750.995	2630
751.046	2660
751.098	2700
751.149	2652
751.2	2698
751.251	2686
751.302	2672
751.353	2592
751.404	2664
751.456	2638
751.507	2622
751.558	2662
751.609	2660
751.66	2652
751.711	2642
751.763	2658
751.814	2606
751.865	2620
751.916	2602
751.967	2626
752.018	2588
752.07	2606
752.121	2604
752.172	2618
752.223	2594
752.274	2620
752.325	2614
752.376	2588
752.428	2576
752.479	2610
752.53	2580
752.581	2586
752.632	2624
752.683	2570
752.734	2524
752.786	2566
752.837	2576
752.888	2536
752.939	2592
752.99	2564
753.041	2480
753.092	2554
753.144	2528
753.195	2526
753.246	2530
753.297	2494
753.348	2540
753.399	2562
753.45	2536
753.502	2558
753.553	2510
753.604	2472
753.655	2542
753.706	2540
753.757	2530
753.808	2534
753.859	2474
753.911	2496
753.962	2482
754.013	2516
754.064	2468
754.115	2518
754.166	2440
754.217	2478
754.269	2468
754.32	2478
754.371	2510
754.422	2476
754.473	2464
754.524	2438
754.575	2468
754.626	2454
754.678	2456
754.729	2422
754.78	2476
754.831	2474
754.882	2448
754.933	2484
754.984	2462
755.035	2470
755.086	2442
755.138	2442
755.189	2430
755.24	2414
755.291	2406
755.342	2432
755.393	2412
755.444	2446
755.495	2394
755.547	2442
755.598	2402
755.649	2370
755.7	2442
755.751	2404
755.802	2414
755.853	2372
755.904	2356
755.955	2430
756.006	2378
756.058	2374
756.109	2408
756.16	2386
756.211	2390
756.262	2358
756.313	2380
756.364	2378
756.415	2348
756.466	2416
756.518	2330
756.569	2362
756.62	2362
756.671	2382
756.722	2304
756.773	2338
756.824	2362
756.875	2318
756.926	2348
756.977	2362
757.029	2372
757.08	2334
757.131	2352
757.182	2336
757.233	2308
757.284	2274
757.335	2328
757.386	2334
757.437	2286
757.488	2356
757.539	2330
757.59	2334
757.642	2318
757.693	2312
757.744	2330
757.795	2290
757.846	2292
757.897	2288
757.948	2320
757.999	2302
758.05	2284
758.101	2266
758.152	2290
758.203	2270
758.255	2252
758.306	2306
758.357	2292
758.408	2274
758.459	2300
758.51	2274.22
758.561	2227.33
758.612	2226.46
758.663	2261.93
758.714	2238.13
758.765	2240.34
758.816	2259.99
758.867	2248.59
758.919	2215.71
758.97	2277.06
759.021	2273.98
759.072	2226
759.123	2230.64
759.174	2229.38
759.225	2254.77
759.276	2191.23
759.327	2269.7
759.378	2233.53
759.429	2241.5
759.48	2222.85
759.531	2193.81
759.582	2237.46
759.633	2190.4
759.685	2203.45
759.736	2190.49
759.787	2186.89
759.838	2228.31
759.889	2189.02
759.94	2209.45
759.991	2213.69
760.042	2210.19
760.093	2221.03
760.144	2238.41
760.195	2188.11
760.246	2180.22
760.297	2170.35
760.348	2193.33
760.399	2183.84
760.45	2163.52
760.501	2171.54
760.552	2169.53
760.603	2143.44
760.655	2146.78
760.706	2154.21
760.757	2140.66
760.808	2132.56
760.859	2162.32
760.91	2148.36
760.961	2123.12
761.012	2120.88
761.063	2106.09
761.114	2096.48
761.165	2132.43
761.216	2138.34
761.267	2120.54
761.318	2125.99
761.369	2117.52
761.42	2125.83
761.471	2138.8
761.522	2131.82
761.573	2099.19
761.624	2101.5
761.675	2085.18
761.726	2095.53
761.777	2143.77
761.828	2086.75
761.88	2120.66
761.931	2113.45
761.982	2084.08
762.033	2130.85
762.084	2093.43
762.135	2112.17
762.186	2059.79
762.237	2106.67
762.288	2092.96
762.339	2071.51
762.39	2092.49
762.441	2057.12
762.492	2061.19
762.543	2075.38
762.594	2095.68
762.645	2065.35
762.696	2081.21
762.747	2066.03
762.798	2055.29
762.849	2086.55
762.9	2089.03
762.951	2062.45
763.002	2072.49
763.053	2080.96
763.104	2040.87
763.155	2029.01
763.206	2066.61
763.257	2053.31
763.308	2054.66
763.359	2049.89
763.41	2048.43
763.461	2029.94
763.512	2023.96
763.563	1994.67
763.614	2008.27
763.665	2023.65
763.678	2026
763.729	2040
763.78	2010
763.832	1994
763.883	1960
763.934	1986
763.986	1968
764.037	2004
764.088	2010
764.139	2042
764.191	1996
764.242	2008
764.293	1978
764.345	1956
764.396	1960
764.447	2006
764.498	1940
764.55	1996
764.601	1964
764.652	1962
764.704	1972
764.755	1962
764.806	1956
764.857	1970
764.909	1972
764.96	1946
765.011	1988
765.062	1956
765.114	1910
765.165	1968
765.216	1930
765.268	1908
765.319	1952
765.37	1940
765.421	1936
765.473	1930
765.524	1908
765.575	1914
765.626	1926
765.678	1924
765.729	1962
765.78	1936
765.831	1906
765.883	1918
765.934	1932
765.985	1936
766.036	1918
766.088	1904
766.139	1932
766.19	1912
766.242	1930
766.293	1882
766.344	1948
766.395	1888
766.447	1940
766.498	1902
766.549	1898
766.6	1886
766.652	1904
766.703	1868
766.754	1908
766.805	1898
766.857	1924
766.908	1912
766.959	1826
767.01	1906
767.062	1884
767.113	1910
767.164	1872
767.215	1844
767.267	1874
767.318	1812
767.369	1862
767.42	1844
767.472	1852
767.523	1856
767.574	1810
767.625	1854
767.677	1868
767.728	1876
767.779	1812
767.83	1852
767.882	1826
767.933	1850
767.984	1842
768.035	1830
768.087	1842
768.138	1822
768.189	1824
768.24	1776
768.292	1814
768.343	1800
768.394	1798
768.445	1830
768.497	1834
768.548	1826
768.599	1808
768.65	1816
768.701	1828
768.753	1838
768.804	1762
768.855	1832
768.906	1776
768.958	1804
769.009	1748
769.06	1766
769.111	1748
769.163	1742
769.214	1782
769.265	1778
769.316	1778
769.367	1794
769.419	1734
769.47	1754
769.521	1754
769.572	1706
769.624	1810
769.675	1780
769.726	1710
769.777	1724
769.828	1768
769.88	1772
769.931	1738
769.982	1740
770.033	1786
770.085	1698
770.136	1720
770.187	1710
770.238	1746
770.289	1720
770.341	1720
770.392	1678
770.443	1682
770.494	1718
770.546	1744
770.597	1782
770.648	1720
770.699	1678
770.75	1700
770.802	1724
770.853	1652
770.904	1650
770.955	1684
771.006	1666
771.058	1648
771.109	1692
771.16	1690
771.211	1656
771.263	1698
771.314	1682
771.365	1668
771.416	1688
771.467	1682
771.519	1670
771.57	1654
771.621	1646
771.672	1638
771.723	1622
771.775	1664
771.826	1644
771.877	1658
771.928	1620
771.979	1628
772.031	1642
772.082	1604
772.133	1652
772.184	1672
772.235	1628
772.287	1622
772.338	1564
772.389	1632
772.44	1616
772.491	1622
772.543	1602
772.594	1636
772.645	1606
772.696	1644
772.747	1628
772.799	1588
772.85	1584
772.901	1588
772.952	1596
773.003	1618
773.055	1592
773.106	1536
773.157	1572
773.208	1572
773.259	1576
773.31	1598
773.362	1576
773.413	1564
773.464	1576
773.515	1536
773.566	1564
773.618	1558
773.669	1540
773.72	1612
773.771	1522
773.822	1544
773.873	1586
773.925	1568
773.976	1582
774.027	1562
774.078	1518
774.129	1520
774.18	1596
774.232	1520
774.283	1514
774.334	1520
774.385	1542
774.436	1562
774.488	1540
774.539	1538
774.59	1516
774.641	1514
774.692	1520
774.743	1490
774.795	1526
774.846	1512
774.897	1490
774.948	1498
774.999	1482
775.05	1468
775.102	1498
775.153	1496
775.204	1512
775.255	1540
775.306	1472
775.357	1536
775.409	1458
775.46	1458
775.511	1468
775.562	1488
775.613	1488
775.664	1478
775.716	1496
775.767	1478
775.818	1436
775.869	1530
775.92	1446
775.971	1426
776.023	1428
776.074	1472
776.125	1484
776.176	1468
776.227	1428
776.278	1472
776.329	1488
776.381	1454
776.432	1444
776.483	1438
776.534	1434
776.585	1458
776.636	1416
776.688	1436
776.739	1412
776.79	1428
776.841	1454
776.892	1416
776.943	1406
776.994	1422
777.046	1424
777.097	1442
777.148	1426
777.199	1418
777.25	1404
777.301	1414
777.352	1398
777.404	1420
777.455	1412
777.506	1380
777.557	1402
777.608	1356
777.659	1422
777.71	1384
777.762	1428
777.813	1404
777.864	1432
777.915	1394
777.966	1398
778.017	1380
778.068	1402
778.12	1376
778.171	1382
778.222	1394
778.273	1396
778.324	1346
778.375	1370
778.426	1372
778.477	1380
778.529	1366
778.58	1354
778.631	1314
778.682	1402
778.733	1368
778.784	1342
778.835	1342
778.886	1380
778.938	1342
778.989	1340
779.04	1378
779.091	1330
779.142	1326
779.193	1336
779.244	1348
779.295	1344
779.347	1300
779.398	1328
779.449	1338
779.5	1374
779.551	1344
779.602	1326
779.653	1350
779.704	1312
779.755	1342
779.807	1280
779.858	1316
779.909	1328
779.96	1316
780.011	1328
780.062	1320
780.113	1334
780.164	1318
780.216	1318
780.267	1336
780.318	1306
780.369	1292
780.42	1302
780.471	1276
780.522	1318
780.573	1308
780.624	1320
780.675	1296
780.727	1288
780.778	1298
780.829	1256
780.88	1292
780.931	1262
780.982	1274
781.033	1286
781.084	1264
781.135	1294
781.187	1298
781.238	1254
781.289	1266
781.34	1262
781.391	1282
781.442	1260
781.493	1270
781.544	1296
781.595	1250
781.646	1258
781.698	1230
781.749	1228
781.8	1230
781.851	1254
781.902	1216
781.953	1240
782.004	1224
782.055	1238
782.106	1248
782.157	1242
782.208	1254
782.26	1212
782.311	1242
782.362	1222
782.413	1210
782.464	1234
782.515	1164
782.566	1224
782.617	1232
782.668	1192
782.719	1200
782.77	1250
782.821	1196
782.872	1198
782.924	1204
782.975	1232
783.026	1188
783.077	1196
783.128	1152
783.179	1170
783.23	1210
783.281	1186
783.332	1190
783.383	1190
783.434	1204
783.485	1162
783.536	1192
783.588	1196
783.639	1178
783.69	1204
783.741	1152
783.792	1174
783.843	1136
783.894	1184
783.945	1148
783.996	1156
784.047	1174
784.098	1162
784.149	1172
784.2	1136
784.252	1150
784.303	1176
784.354	1162
784.405	1154
784.456	1178
784.507	1148
784.558	1176
784.609	1130
784.66	1124
784.711	1098
784.762	1114
784.813	1166
784.864	1124
784.915	1132
784.966	1132
785.017	1162
785.068	1142
785.12	1110
785.171	1152
785.222	1146
785.273	1148
785.324	1132
785.375	1140
785.426	1138
785.477	1090
785.528	1116
785.579	1114
785.63	1112
785.681	1084
785.732	1134
785.783	1122
785.834	1128
785.885	1108
785.936	1100
785.987	1102
786.038	1130
786.089	1120
786.141	1100
786.192	1102
786.243	1104
786.294	1072
786.345	1116
786.396	1080
786.447	1088
786.498	1110
786.549	1100
786.6	1064
786.651	1078
786.702	1066
786.753	1048
786.804	1092
786.855	1094
786.906	1084
786.957	1080
787.008	1092
787.059	1082
787.11	1076
787.161	1066
787.212	1038
787.263	1088
787.314	1062
787.365	1084
787.416	1058
787.467	1056
787.518	1078
787.57	1072
787.621	1050
787.672	1058
787.723	1048
787.774	1052
787.825	1030
787.876	1032
787.927	1042
787.978	1040
788.029	1052
788.08	1052
788.131	1000
788.182	1044
788.233	1014
788.284	1018
788.335	1038
788.386	996
788.437	970
788.488	1014
788.539	1018
788.59	1004
788.641	1040
788.692	1028
788.743	1016
788.794	988
788.845	1024
788.896	994
788.947	978
788.998	1014
789.049	1012
789.1	1028
789.151	994
789.202	996
789.253	978
789.304	1008
789.355	1000
789.406	960
789.457	994
789.508	1000
789.559	960
789.61	978
789.661	982
789.712	988
789.763	1006
789.814	974
789.865	972
789.916	982
789.967	988
790.018	986
790.069	972
790.12	994
790.171	970
790.222	992
790.273	994
790.324	956
790.375	946
790.426	954
790.477	990
790.528	972
790.579	944
790.63	948
790.681	952
790.732	968
790.783	954
790.834	946
790.885	952
790.936	968
790.987	944
791.038	954
791.089	954
791.14	934
791.191	958
791.242	934
791.293	942
791.344	946
791.395	920
791.446	964
791.497	942
791.548	936
791.599	902
791.65	948
791.701	942
791.752	934
791.803	940
791.854	888
791.905	926
791.956	908
792.007	950
792.058	870
792.109	918
792.16	914
792.211	948
792.262	916
792.313	908
792.363	908
792.414	896
792.465	912
792.516	936
792.567	888
792.618	932
792.669	906
792.72	894
792.771	898
792.822	906
792.873	934
792.924	910
792.975	898
793.026	908
793.077	904
793.128	900
793.179	892
793.23	896
793.281	860
793.332	910
793.383	882
793.434	870
793.485	880
793.536	890
793.587	854
793.638	918
793.689	910
793.74	872
793.79	898
793.841	886
793.892	872
793.943	872
793.994	836
794.045	878
794.096	876
794.147	852
794.198	866
794.249	890
794.3	844
794.351	860
794.402	898
794.453	884
794.504	828
794.555	880
794.606	836
794.657	856
794.708	868
794.758	840
794.809	820
794.86	836
794.911	816
794.962	876
795.013	824
795.064	862
795.115	836
795.166	840
795.217	846
795.268	842
795.319	816
795.37	804
795.421	828
795.472	836
795.523	810
795.573	850
795.624	810
795.675	814
795.726	840
795.777	866
795.828	832
795.879	818
795.93	794
795.981	820
796.032	818
796.083	836
796.134	804
796.185	836
796.236	766
796.286	796
796.337	792
796.388	800
796.439	790
796.49	800
796.541	804
796.592	806
796.643	804
796.694	776
796.745	806
796.796	802
796.847	794
796.897	824
796.948	790
796.999	834
797.05	806
797.101	766
797.152	786
797.203	780
797.254	796
797.305	788
797.356	774
797.407	810
797.458	794
797.508	796
797.559	784
797.61	806
797.661	762
797.712	798
797.763	786
797.814	770
797.865	774
797.916	772
797.967	770
798.018	782
798.068	792
798.119	788
798.17	762
798.221	772
798.272	786
798.323	762
798.374	780
798.425	754
798.476	756
798.526	770
798.577	772
798.628	758
798.679	740
798.73	752
798.781	754
798.832	736
798.883	750
798.934	772
798.984	742
799.035	746
799.086	754
799.137	754
799.188	750
799.239	708
799.29	744
799.341	746
799.392	762
799.443	754
799.493	728
799.544	722
799.595	744
799.646	736
799.697	734
799.748	738
799.799	730
799.85	754
799.9	722
799.951	708
800.002	748
800.053	754
800.104	744
800.155	718
800.206	730
800.257	716
800.307	728
800.358	728
800.409	744
800.46	736
800.511	730
800.562	736
800.613	718
800.664	696
800.714	708
800.765	730
800.816	694
800.867	720
800.918	682
800.969	718
801.02	718
801.07	702
801.121	704
801.172	704
801.223	724
801.274	720
801.325	676
801.376	678
801.427	714
801.477	694
801.528	670
801.579	670
801.63	718
801.681	698
801.732	690
801.783	700
801.833	700
801.884	674
801.935	712
801.986	718
802.037	676
802.088	668
802.139	662
802.189	700
802.24	680
802.291	678
802.342	666
802.393	664
802.444	694
802.495	698
802.545	682
802.596	658
802.647	670
802.698	662
802.749	690
802.8	650
802.85	664
802.901	664
802.952	652
803.003	694
803.054	698
803.105	670
803.155	650
803.206	652
803.257	680
803.308	648
803.359	678
803.41	670
803.46	668
803.511	658
803.562	650
803.613	636
803.664	648
803.715	634
803.765	644
803.816	668
803.867	642
803.918	666
803.969	648
804.02	642
804.07	628
804.121	640
804.172	668
804.223	624
804.274	678
804.325	650
804.375	642
804.426	628
804.477	638
804.528	656
804.579	642
804.63	608
804.68	636
804.731	652
804.782	612
804.833	620
804.884	626
804.934	596
804.985	638
805.036	622
805.087	620
805.138	624
805.188	634
805.239	630
805.29	638
805.341	624
805.392	612
805.443	610
805.493	611.978
805.544	609.922
805.595	645.242
805.646	616.066
805.697	617.913
805.747	610.572
805.798	616.053
805.849	618.426
805.9	583.858
805.951	605.83
806.001	601.984
806.052	576.931
806.103	621.154
806.154	610.878
806.205	606.427
806.255	577.715
806.306	601.538
806.357	635.556
806.408	632.455
806.459	588.837
806.509	607.862
806.56	595.817
806.611	607.206
806.662	596.198
806.713	600.135
806.763	579.158
806.814	594.866
806.865	616.998
806.916	602.746
806.967	580.104
807.017	584.944
807.068	587.604
807.119	602.299
807.17	600.539
807.22	596.033
807.271	594.356
807.322	585.873
807.373	601.052
807.424	582.328
807.474	584.568
807.525	585.255
807.576	578.118
807.627	571.011
807.678	594.266
807.728	594.449
807.779	589.144
807.83	574.366
807.881	580.166
807.931	577.413
807.982	579.021
808.033	588.551
808.084	576.472
808.135	591.519
808.185	575.999
808.236	570.947
808.287	572.822
808.338	570.822
808.388	575.192
808.439	573.166
808.49	555.314
808.541	569.682
808.591	566.832
808.642	559.235
808.693	564.529
808.744	569.888
808.795	569.486
808.845	577.544
808.896	561.797
808.947	559.813
808.998	561.194
809.048	552.23
809.099	554.582
809.15	545.675
809.201	557.314
809.251	557.74
809.302	567.534
809.353	573.423
809.404	547.04
809.454	551.465
809.505	565.252
809.556	519.756
809.607	546.867
809.658	551.983
809.708	547.825
809.759	563.044
809.81	547.628
809.861	544.113
809.911	554.267
809.962	556.742
810.013	549.679
810.064	552.225
810.114	535.802
810.165	548.449
810.216	526.23
810.267	534.178
810.317	554.293
810.368	559.93
810.419	526.623
810.469	533.225
810.52	552.595
810.571	575.034
810.622	540.182
810.627	536
810.678	552
810.729	520
810.78	536
810.831	526
810.882	512
810.933	548
810.984	526
811.035	536
811.086	510
811.137	544
811.188	520
811.239	522
811.29	510
811.341	530
811.392	534
811.443	516
811.494	528
811.545	518
811.596	514
811.648	522
811.699	512
811.75	520
811.801	528
811.852	538
811.903	506
811.954	514
812.005	508
812.056	528
812.107	518
812.158	512
812.209	530
812.26	508
812.311	522
812.362	516
812.413	488
812.464	508
812.515	490
812.566	518
812.617	522
812.668	500
812.719	474
812.77	494
812.821	508
812.872	488
812.923	498
812.974	524
813.025	506
813.076	502
813.127	512
813.178	484
813.229	478
813.28	502
813.331	490
813.382	514
813.433	508
813.484	486
813.535	482
813.586	492
813.637	464
813.688	492
813.739	474
813.79	494
813.841	486
813.892	496
813.943	472
813.994	490
814.045	498
814.096	478
814.147	492
814.198	496
814.249	470
814.3	498
814.351	474
814.402	462
814.453	490
814.504	482
814.555	470
814.606	484
814.657	470
814.708	460
814.759	474
814.81	486
814.861	494
814.912	470
814.963	470
815.014	468
815.065	474
815.116	482
815.167	472
815.217	468
815.268	454
815.319	462
815.37	474
815.421	484
815.472	468
815.523	460
815.574	472
815.625	472
815.676	452
815.727	472
815.778	448
815.829	466
815.88	448
815.931	474
815.982	448
816.033	462
816.084	456
816.135	446
816.186	462
816.237	470
816.288	438
816.339	468
816.39	444
816.441	426
816.492	430
816.543	456
816.594	464
816.645	432
816.696	454
816.747	466
816.798	454
816.849	450
816.9	456
816.951	448
817.001	446
817.052	460
817.103	458
817.154	458
817.205	440
817.256	442
817.307	446
817.358	452
817.409	444
817.46	474
817.511	450
817.562	448
817.613	442
817.664	440
817.715	424
817.766	462
817.817	456
817.868	422
817.919	444
817.97	430
818.021	424
818.071	438
818.122	412
818.173	434
818.224	436
818.275	446
818.326	426
818.377	424
818.428	430
818.479	444
818.53	428
818.581	432
818.632	440
818.683	446
818.734	424
818.785	428
818.836	436
818.887	438
818.938	424
818.988	448
819.039	408
819.09	414
819.141	434
819.192	436
819.243	414
819.294	420
819.345	416
819.396	430
819.447	428
819.498	430
819.549	404
819.6	430
819.651	404
819.702	416
819.753	426
819.803	410
819.854	408
819.905	420
819.956	428
820.007	402
820.058	418
820.109	402
820.16	422
820.211	422
820.262	416
820.313	418
820.364	430
820.415	398
820.465	416
820.516	402
820.567	404
820.618	436
820.669	416
820.72	420
820.771	390
820.822	396
820.873	414
820.924	386
820.975	392
821.026	408
821.076	414
821.127	398
821.178	384
821.229	398
821.28	398
821.331	408
821.382	414
821.433	404
821.484	390
821.535	400
821.586	392
821.637	390
821.687	392
821.738	416
821.789	376
821.84	418
821.891	404
821.942	392
821.993	384
822.044	398
822.095	406
822.146	380
822.196	370
822.247	394
822.298	400
822.349	394
822.4	366
822.451	392
822.502	398
822.553	364
822.604	372
822.655	384
822.706	376
822.756	386
822.807	384
822.858	398
822.909	376
822.96	370
823.011	380
823.062	398
823.113	370
823.164	378
823.214	396
823.265	376
823.316	372
823.367	366
823.418	374
823.469	358
823.52	388
823.571	370
823.622	346
823.672	350
823.723	374
823.774	366
823.825	362
823.876	384
823.927	374
823.978	352
824.029	366
824.08	378
824.13	380
824.181	372
824.232	366
824.283	358
824.334	366
824.385	368
824.436	346
824.487	374
824.537	362
824.588	356
824.639	368
824.69	354
824.741	360
824.792	336
824.843	348
824.893	372
824.944	366
824.995	364
825.046	376
825.097	358
825.148	356
825.199	394
825.25	360
825.3	356
825.351	358
825.402	370
825.453	364
825.504	366
825.555	354
825.606	372
825.657	354
825.707	346
825.758	368
825.809	348
825.86	336
825.911	340
825.962	344
826.013	348
826.063	348
826.114	350
826.165	346
826.216	352
826.267	362
826.318	372
826.369	332
826.419	366
826.47	334
826.521	336
826.572	346
826.623	332
826.674	336
826.725	340
826.775	354
826.826	334
826.877	334
826.928	334
826.979	346
827.03	342
827.08	326
827.131	342
827.182	358
827.233	352
827.284	352
827.335	348
827.386	354
827.436	334
827.487	330
827.538	368
827.589	350
827.64	346
827.691	356
827.741	366
827.792	340
827.843	344
827.894	344
827.945	352
827.996	328
828.046	322
828.097	326
828.148	338
828.199	340
828.25	326
828.301	330
828.351	332
828.402	342
828.453	334
828.504	324
828.555	332
828.606	326
828.656	320
828.707	334
828.758	326
828.809	338
828.86	312
828.911	318
828.961	330
829.012	328
829.063	320
829.114	314
829.165	326
829.216	330
829.266	324
829.317	342
829.368	354
829.419	316
829.47	348
829.52	326
829.571	324
829.622	322
829.673	308
829.724	326
829.774	312
829.825	302
829.876	320
829.927	326
829.978	318
830.029	330
830.079	340
830.13	320
830.181	324
830.232	298
830.283	314
830.333	308
830.384	338
830.435	350
830.486	302
830.537	320
830.587	316
830.638	322
830.689	310
830.74	310
830.791	316
830.841	314
830.892	308
830.943	312
830.994	312
831.045	306
831.095	314
831.146	298
831.197	320
831.248	314
831.299	308
831.349	314
831.4	290
831.451	278
831.502	306
831.553	294
831.603	320
831.654	286
831.705	296
831.756	310
831.807	292
831.857	294
831.908	296
831.959	302
832.01	312
832.061	302
832.111	296
832.162	314
832.213	302
832.264	288
832.315	304
832.365	300
832.416	300
832.467	306
832.518	290
832.568	298
832.619	298
832.67	292
832.721	300
832.772	294
832.822	314
832.873	304
832.924	290
832.975	302
833.025	292
833.076	284
833.127	290
833.178	286
833.229	306
833.279	304
833.33	296
833.381	292
833.432	286
833.482	304
833.533	318
833.584	280
833.635	298
833.685	280
833.736	304
833.787	288
833.838	276
833.889	296
833.939	296
833.99	278
834.041	292
834.092	280
834.142	280
834.193	292
834.244	278
834.295	284
834.345	286
834.396	286
834.447	306
834.498	290
834.548	286
834.599	284
834.65	286
834.701	282
834.751	292
834.802	280
834.853	272
834.904	296
834.954	280
835.005	286
835.056	296
835.107	280
835.157	292
835.208	272
835.259	266
835.31	290
835.36	284
835.411	268
835.462	286
835.513	268
835.563	276
835.614	276
835.665	292
835.716	278
835.766	292
835.817	266
835.868	280
835.919	280
835.969	280
836.02	278
836.071	274
836.122	262
836.172	278
836.223	270
836.274	258
836.325	274
836.375	284
836.426	266
836.477	296
836.528	254
836.578	262
836.629	266
836.68	260
836.73	246
836.781	290
836.832	264
836.883	284
836.933	252
836.984	274
837.035	262
837.086	258
837.136	276
837.187	254
837.238	266
837.288	264
837.339	272
837.39	288
837.441	260
837.491	268
837.542	250
837.593	282
837.643	268
837.694	262
837.745	260
837.796	276
837.846	264
837.897	260
837.948	272
837.999	260
838.049	272
838.1	258
838.151	278
838.201	266
838.252	256
838.303	264
838.354	254
838.404	262
838.455	270
838.506	268
838.556	252
838.607	272
838.658	260
838.708	256
838.759	254
838.81	260
838.861	274
838.911	260
838.962	266
839.013	270
839.063	252
839.114	262
839.165	252
839.216	262
839.266	264
839.317	246
839.368	256
839.418	266
839.469	248
839.52	274
839.57	272
839.621	250
839.672	242
839.722	252
839.773	258
839.824	262
839.875	246
839.925	250
839.976	240
840.027	270
840.077	264
840.128	260
840.179	234
840.229	248
840.28	264
840.331	258
840.381	248
840.432	250
840.483	240
840.534	258
840.584	234
840.635	234
840.686	250
840.736	250
840.787	246
840.838	252
840.888	244
840.939	238
840.99	260
841.04	238
841.091	244
841.142	260
841.192	240
841.243	246
841.294	250
841.344	244
841.395	262
841.446	240
841.496	238
841.547	238
841.598	248
841.648	240
841.699	226
841.75	220
841.8	230
841.851	250
841.902	234
841.952	238
842.003	252
842.054	246
842.104	240
842.155	220
842.206	252
842.256	246
842.307	232
842.358	246
842.408	224
842.459	242
842.51	242
842.56	228
842.611	224
842.662	240
842.712	228
842.763	222
842.814	224
842.864	240
842.915	232
842.966	250
843.016	230
843.067	248
843.118	232
843.168	236
843.219	236
843.269	232
843.32	220
843.371	238
843.421	244
843.472	244
843.523	234
843.573	230
843.624	240
843.675	228
843.725	238
843.776	240
843.827	234
843.877	236
843.928	234
843.979	242
844.029	210
844.08	238
844.13	228
844.181	248
844.232	238
844.282	244
844.333	224
844.384	234
844.434	230
844.485	238
844.536	218
844.586	232
844.637	234
844.687	220
844.738	232
844.789	226
844.839	218
844.89	234
844.941	228
844.991	226
845.042	218
845.092	224
845.143	220
845.194	214
845.244	224
845.295	228
845.346	220
845.396	238
845.447	226
845.497	238
845.548	224
845.599	212
845.649	218
845.7	216
845.75	222
845.801	230
845.852	216
845.902	222
845.953	232
846.004	222
846.054	224
846.105	226
846.155	224
846.206	228
846.257	214
846.307	210
846.358	232
846.409	212
846.459	222
846.51	222
846.56	208
846.611	228
846.661	220
846.712	218
846.763	220
846.813	210
846.864	214
846.915	202
846.965	202
847.016	232
847.066	202
847.117	218
847.168	206
847.218	218
847.269	232
847.319	220
847.37	202
847.421	232
847.471	210
847.522	222
847.572	216
847.623	196
847.674	202
847.724	220
847.775	200
847.825	204
847.876	208
847.926	214
847.977	226
848.028	192
848.078	196
848.129	216
848.179	208
848.23	218
848.281	218
848.331	202
848.382	216
848.432	214
848.483	202
848.534	218
848.584	186
848.635	192
848.685	216
848.736	226
848.786	218
848.837	208
848.888	216
848.938	220
848.989	204
849.039	220
849.09	198
849.14	204
849.191	190
849.242	202
849.292	210
849.343	204
849.393	200
849.444	202
849.494	200
849.545	200
849.596	208
849.646	216
849.697	202
849.747	218
849.798	190
849.848	206
849.899	196
849.95	196
850	194
850.051	216
850.101	186
850.152	206
850.202	206
850.253	188
850.303	202
850.354	198
850.405	196
850.455	210
850.506	184
850.556	204
850.607	204
850.657	208
850.708	202
850.758	204
850.809	200
850.86	196
850.91	198
850.961	184
851.011	190
851.062	196
851.112	198
851.163	212
851.213	182
851.264	202
851.314	176
851.365	184
851.416	190
851.466	194
851.517	192
851.567	206
851.618	182
851.668	188
851.719	194
851.769	198
851.82	196
851.87	186
851.921	184
851.971	216
852.022	198
852.073	196
852.123	196
852.174	196
852.224	188
852.275	192
852.325	181.991
852.376	199.766
852.426	194.146
852.477	182.35
852.527	191.043
852.578	199.231
852.628	182.519
852.679	197.251
852.729	190.5
852.78	188.016
852.831	191.171
852.881	185.102
852.932	183.669
852.982	184.328
853.033	186.276
853.083	196.157
853.134	179.631
853.184	196.577
853.235	181.85
853.285	195.551
853.336	170.988
853.386	183.721
853.437	182
853.487	185.646
853.538	175.584
853.588	189.109
853.639	192.631
853.689	192.902
853.74	165.286
853.79	193.274
853.841	194.865
853.891	197.407
853.942	185.791
853.992	186.65
854.043	182.774
854.093	188.573
854.144	184.19
854.194	184.268
854.245	174.135
854.295	183.902
854.346	195.887
854.396	184.722
854.447	174.993
854.497	171.875
854.548	182.357
854.598	181.861
854.649	172.79
854.699	175.425
854.75	170.559
854.8	182.529
854.851	179.477
854.901	178.582
854.952	181.532
855.002	184.513
855.053	176.241
855.103	172.374
855.154	179.198
855.204	184.568
855.255	172.672
855.305	175.72
855.356	175.297
855.406	180.631
855.457	180.785
855.507	179.323
855.558	174.59
855.608	180.274
855.659	180.254
855.709	192.7
855.76	187.07
855.81	180.892
855.861	179.328
855.911	177.872
855.962	183.525
856.012	177.993
856.063	165.108
856.113	168.33
856.164	174.863
856.214	181.061
856.265	170.239
856.315	175.006
856.366	176.739
856.416	167.48
856.467	163.071
856.517	167.586
856.568	167.383
856.618	170.095
856.668	169.328
856.719	170
856.769	166.143
856.82	166.909
856.87	169.668
856.921	171.568
856.971	175.254
857.022	173.789
857.072	177.074
857.123	175.729
857.173	170.641
857.224	170.01
857.274	168.06
857.325	165.222
857.352	162
857.403	172
857.453	178
857.504	174
857.555	190
857.606	188
857.656	158
857.707	174
857.758	170
857.809	170
857.859	174
857.91	172
857.961	174
858.012	178
858.063	162
858.113	174
858.164	168
858.215	166
858.266	160
858.316	166
858.367	156
858.418	172
858.469	172
858.519	170
858.57	156
858.621	174
858.672	166
858.722	156
858.773	162
858.824	168
858.875	158
858.925	158
858.976	168
859.027	172
859.078	162
859.128	162
859.179	168
859.23	158
859.281	168
859.331	174
859.382	158
859.433	144
859.483	162
859.534	166
859.585	164
859.636	158
859.686	148
859.737	156
859.788	164
859.839	170
859.889	162
859.94	160
859.991	158
860.042	168
860.092	160
860.143	168
860.194	156
860.245	168
860.295	166
860.346	158
860.397	168
860.447	170
860.498	160
860.549	158
860.6	160
860.65	166
860.701	160
860.752	154
860.802	168
860.853	172
860.904	158
860.955	156
861.005	162
861.056	172
861.107	162
861.158	154
861.208	156
861.259	174
861.31	152
861.36	170
861.411	150
861.462	150
861.513	164
861.563	146
861.614	164
861.665	158
861.715	166
861.766	160
861.817	148
861.868	162
861.918	176
861.969	148
862.02	152
862.07	158
862.121	148
862.172	164
862.223	154
862.273	150
862.324	164
862.375	152
862.425	154
862.476	166
862.527	154
862.577	160
862.628	158
862.679	144
862.73	156
862.78	158
862.831	164
862.882	162
862.932	152
862.983	170
863.034	154
863.084	162
863.135	150
863.186	150
863.237	148
863.287	138
863.338	156
863.389	152
863.439	140
863.49	158
863.541	154
863.591	156
863.642	152
863.693	162
863.744	134
863.794	154
863.845	142
863.896	164
863.946	156
863.997	136
864.048	144
864.098	156
864.149	132
864.2	154
864.25	138
864.301	156
864.352	148
864.402	154
864.453	156
864.504	150
864.555	148
864.605	150
864.656	146
864.707	158
864.757	142
864.808	138
864.859	154
864.909	138
864.96	142
865.011	152
865.061	136
865.112	136
865.163	146
865.213	148
865.264	152
865.315	144
865.365	144
865.416	144
865.467	156
865.517	160
865.568	144
865.619	142
865.669	142
865.72	138
865.771	128
865.821	136
865.872	142
865.923	158
865.973	128
866.024	150
866.075	138
866.125	156
866.176	148
866.227	144
866.277	124
866.328	154
866.379	144
866.429	144
866.48	146
866.531	142
866.581	144
866.632	152
866.683	120
866.733	144
866.784	142
866.835	144
866.885	140
866.936	144
866.987	134
867.037	160
867.088	142
867.138	148
867.189	142
867.24	140
867.29	142
867.341	142
867.392	142
867.442	132
867.493	124
867.544	152
867.594	138
867.645	126
867.696	134
867.746	146
867.797	122
867.848	144
867.898	144
867.949	132
867.999	122
868.05	132
868.101	132
868.151	128
868.202	144
868.253	130
868.303	150
868.354	140
868.405	136
868.455	136
868.506	154
868.556	140
868.607	132
868.658	132
868.708	138
868.759	134
868.81	112
868.86	140
868.911	144
868.961	134
869.012	138
869.063	138
869.113	130
869.164	140
869.215	122
869.265	134
869.316	146
869.367	150
869.417	118
869.468	148
869.518	126
869.569	140
869.62	126
869.67	140
869.721	128
869.771	134
869.822	132
869.873	118
869.923	138
869.974	142
870.025	138
870.075	142
870.126	130
870.176	128
870.227	126
870.278	128
870.328	138
870.379	144
870.43	128
870.48	132
870.531	130
870.581	138
870.632	128
870.683	124
870.733	124
870.784	132
870.834	132
870.885	146
870.936	130
870.986	132
871.037	140
871.087	132
871.138	120
871.189	124
871.239	124
871.29	132
871.34	130
871.391	138
871.442	128
871.492	134
871.543	128
871.593	124
871.644	136
871.695	144
871.745	124
871.796	126
871.846	122
871.897	118
871.948	120
871.998	130
872.049	126
872.099	142
872.15	136
872.201	128
872.251	120
872.302	118
872.352	120
872.403	126
872.453	116
872.504	134
872.555	120
872.605	128
872.656	124
872.706	122
872.757	122
872.808	116
872.858	120
872.909	122
872.959	130
873.01	130
873.06	126
873.111	134
873.162	120
873.212	134
873.263	126
873.313	132
873.364	120
873.415	126
873.465	126
873.516	124
873.566	128
873.617	106
873.667	124
873.718	122
873.769	122
873.819	116
873.87	124
873.92	116
873.971	118
874.021	130
874.072	118
874.123	126
874.173	116
874.224	128
874.274	122
874.325	118
874.375	126
874.426	106
874.477	116
874.527	126
874.578	132
874.628	132
874.679	112
874.729	116
874.78	110
874.83	120
874.881	106
874.932	124
874.982	108
875.033	118
875.083	112
875.134	102
875.184	126
875.235	124
875.285	112
875.336	122
875.387	122
875.437	124
875.488	118
875.538	128
875.589	120
875.639	120
875.69	124
875.74	120
875.791	124
875.841	128
875.892	122
875.943	112
875.993	120
876.044	124
876.094	102
876.145	106
876.195	130
876.246	118
876.296	112
876.347	126
876.397	116
876.448	124
876.499	120
876.549	118
876.6	122
876.65	132
876.701	110
876.751	118
876.802	120
876.852	116
876.903	128
876.953	102
877.004	122
877.054	118
877.105	106
877.155	124
877.206	112
877.257	108
877.307	116
877.358	114
877.408	110
877.459	108
877.509	102
877.56	122
877.61	112
877.661	122
877.711	118
877.762	102
877.812	120
877.863	122
877.913	120
877.964	104
878.014	116
878.065	112
878.115	106
878.166	118
878.216	114
878.267	122
878.318	110
878.368	106
878.419	116
878.469	114
878.52	110
878.57	110
878.621	110
878.671	116
878.722	106
878.772	104
878.823	106
878.873	120
878.924	104
878.974	116
879.025	104
879.075	114
879.126	108
879.176	108
879.227	116
879.277	108
879.328	102
879.378	106
879.429	116
879.479	108
879.53	102
879.58	114
879.631	116
879.681	110
879.732	110
879.782	112
879.833	112
879.883	100
879.934	106
879.984	120
880.035	106
880.085	110
880.136	114
880.186	106
880.237	112
880.287	106
880.338	100
880.388	106
880.439	106
880.489	108
880.54	100
880.59	112
880.641	114
880.691	122
880.742	102
880.792	100
880.842	106
880.893	98
880.943	106
880.994	116
881.044	104
881.095	110
881.145	106
881.196	100
881.246	106
881.297	106
881.347	112
881.398	110
881.448	106
881.499	106
881.549	106
881.6	106
881.65	106
881.701	96
881.751	100
881.802	110
881.852	106
881.902	110
881.953	102
882.003	88
882.054	94
882.104	110
882.155	102
882.205	102
882.256	100
882.306	108
882.357	100
882.407	104
882.458	118
882.508	102
882.559	102
882.609	104
882.659	118
882.71	108
882.76	90
882.811	112
882.861	110
882.912	102
882.962	98
883.013	102
883.063	106
883.114	100
883.164	102
883.214	92
883.265	100
883.315	94
883.366	90
883.416	104
883.467	104
883.517	106
883.568	102
883.618	92
883.669	102
883.719	90
883.769	90
883.82	106
883.87	94
883.921	102
883.971	98
884.022	96
884.072	110
884.123	102
884.173	106
884.223	106
884.274	104
884.324	96
884.375	104
884.425	98
884.476	102
884.526	104
884.577	102
884.627	102
884.677	108
884.728	106
884.778	90
884.829	96
884.879	98
884.93	92
884.98	98
885.03	98
885.081	100
885.131	98
885.182	98
885.232	94
885.283	102
885.333	110
885.383	94
885.434	100
885.484	88
885.535	94
885.585	102
885.635	86
885.686	98
885.736	100
885.787	98
885.837	86
885.888	98
885.938	92
885.988	94
886.039	92
886.089	98
886.14	98
886.19	88
886.241	84
886.291	104
886.341	96
886.392	96
886.442	96
886.493	108
886.543	92
886.593	96
886.644	92
886.694	110
886.745	90
886.795	96
886.845	102
886.896	94
886.946	96
886.997	94
887.047	88
887.097	94
887.148	100
887.198	96
887.249	78
887.299	94
887.349	88
887.4	74
887.45	94
887.501	90
887.551	98
887.602	88
887.652	92
887.702	100
887.753	86
887.803	96
887.853	90
887.904	88
887.954	106
888.005	98
888.055	88
888.105	88
888.156	96
888.206	94
888.257	84
888.307	96
888.357	94
888.408	86
888.458	84
888.509	90
888.559	98
888.609	86
888.66	86
888.71	96
888.76	84
888.811	92
888.861	96
888.912	88
888.962	90
889.012	88
889.063	94
889.113	94
889.163	98
889.214	78
889.264	92
889.315	94
889.365	86
889.415	92
889.466	86
889.516	86
889.566	92
889.617	80
889.667	102
889.718	90
889.768	94
889.818	86
889.869	86
889.919	84
889.969	90
890.02	90
890.07	96
890.12	78
890.171	88
890.221	78
890.272	78
890.322	88
890.372	94
890.423	90
890.473	80
890.523	80
890.574	90
890.624	78
890.674	74
890.725	96
890.775	88
890.826	92
890.876	86
890.926	84
890.977	92
891.027	88
891.077	76
891.128	92
891.178	84
891.228	86
891.279	80
891.329	84
891.379	100
891.43	88
891.48	78
891.53	82
891.581	86
891.631	76
891.681	70
891.732	96
891.782	80
891.832	94
891.883	88
891.933	82
891.983	92
892.034	80
892.084	74
892.134	96
892.185	82
892.235	80
892.286	80
892.336	84
892.386	80
892.437	86
892.487	90
892.537	90
892.587	72
892.638	94
892.688	82
892.738	94
892.789	88
892.839	80
892.889	70
892.94	78
892.99	78
893.04	82
893.091	92
893.141	86
893.191	90
893.242	84
893.292	90
893.342	84
893.393	88
893.443	74
893.493	84
893.544	80
893.594	84
893.644	80
893.695	86
893.745	76
893.795	88
893.846	82
893.896	86
893.946	84
893.996	82
894.047	78
894.097	72
894.147	92
894.198	82
894.248	72
894.298	82
894.349	88
894.399	78
894.449	92
894.5	78
894.55	76
894.6	80
894.65	78
894.701	76
894.751	80
894.801	88
894.852	78
894.902	72
894.952	74
895.003	90
895.053	86
895.103	78
895.153	84
895.204	82
895.254	84
895.304	78
895.355	84
895.405	86
895.455	66
895.505	80
895.556	80
895.606	74
895.656	78
895.707	84
895.757	82
895.807	84
895.858	78
895.908	72
895.958	76
896.008	78
896.059	72
896.109	70
896.159	74
896.21	74
896.26	90
896.31	74
896.36	76
896.411	76
896.461	60
896.511	76
896.561	74
896.612	78
896.662	80
896.712	66
896.763	78
896.813	84
896.863	82
896.913	76
896.964	76
897.014	72
897.064	70
897.115	68
897.165	74
897.215	80
897.265	82
897.316	78
897.366	74
897.416	74
897.466	78
897.517	78
897.567	80
897.617	80
897.667	70
897.718	82
897.768	80
897.818	64
897.868	68
897.919	70
897.969	82
898.019	74
898.069	64
898.12	74
898.17	78
898.22	70
898.27	76
898.321	70
898.371	84
898.421	66
898.471	62
898.522	74
898.572	68
898.622	74
898.672	74
898.723	78
898.773	80
898.823	72
898.873	74
898.924	74
898.974	76
899.024	66
899.074	76
899.125	73
899.175	70
899.225	76
899.275	72
899.326	68
899.376	74
899.426	72
899.476	76
899.527	76
899.577	66
899.627	74
899.677	74
899.728	70
899.778	78
899.828	80
899.878	68
899.928	62
899.979	62
