#Acq. time (s)=	3
#Accumulations=	2
#Range (nm)=	520...900
#Windows=	8
#Auto scanning=	Off
#Autofocus=	Off
#AutoExposure=	Off
#Spike filter=	Multiple accum.
#Delay time (s)=	0
#Binning=	1
#Readout mode=	Signal
#DeNoise=	Off
#ICS correction=	Off
#Dark correction=	Off
#Inst. Process=	Off
#Detector temperature (°C)=	-59.98
#Instrument=	LabRAM HR Evol
#Detector=	Syncerity OE
#Objective=	x50_VIS
#Grating=	600 (500nm)
#ND Filter=	25%
#Laser=	514nm_Edge
#Hole=	199.981
#Range=	Auto
#StageXY=	Marzhauser
#StageZ=	Marzhauser
#X (µm)=	-371.6
#Y (µm)=	4464.7
#Z (µm)=	-6.4
#Full time(mm:ss)=	1:28
#Project=	
#Sample=	
#Site=	
#Title=	PL_M1_180324
#Remark=	
#Date=	28.03.2024 09:08
#Acquired=	28.03.2024 09:08:16
520.044	50
520.097	56
520.149	52
520.201	46
520.254	50
520.306	42
520.359	44
520.411	42
520.464	50
520.516	46
520.569	52
520.621	52
520.674	62
520.726	56
520.778	48
520.831	44
520.883	52
520.936	50
520.988	48
521.041	58
521.093	52
521.146	56
521.198	50
521.25	50
521.303	42
521.355	50
521.408	46
521.46	46
521.513	52
521.565	44
521.617	50
521.67	48
521.722	58
521.775	54
521.827	44
521.88	42
521.932	58
521.984	50
522.037	44
522.089	48
522.142	56
522.194	58
522.247	52
522.299	54
522.352	62
522.404	48
522.456	56
522.509	44
522.561	50
522.614	58
522.666	54
522.719	54
522.771	50
522.823	52
522.876	46
522.928	44
522.981	54
523.033	54
523.086	50
523.138	42
523.19	54
523.243	52
523.295	44
523.348	38
523.4	46
523.453	54
523.505	34
523.557	36
523.61	52
523.662	50
523.715	42
523.767	56
523.82	54
523.872	46
523.924	50
523.977	60
524.029	58
524.082	56
524.134	46
524.186	46
524.239	52
524.291	58
524.344	48
524.396	52
524.449	50
524.501	46
524.553	34
524.606	40
524.658	52
524.711	58
524.763	42
524.815	48
524.868	56
524.92	54
524.973	46
525.025	54
525.078	50
525.13	56
525.182	44
525.235	50
525.287	56
525.34	54
525.392	52
525.444	46
525.497	46
525.549	52
525.602	42
525.654	42
525.706	60
525.759	56
525.811	40
525.864	46
525.916	54
525.969	42
526.021	50
526.073	52
526.126	54
526.178	50
526.231	54
526.283	38
526.335	40
526.388	52
526.44	52
526.493	58
526.545	54
526.597	48
526.65	48
526.702	38
526.755	42
526.807	52
526.859	50
526.912	46
526.964	54
527.017	50
527.069	44
527.121	48
527.174	60
527.226	46
527.279	46
527.331	48
527.383	54
527.436	50
527.488	50
527.54	40
527.593	58
527.645	44
527.698	46
527.75	48
527.802	50
527.855	52
527.907	32
527.96	42
528.012	50
528.064	52
528.117	52
528.169	48
528.222	56
528.274	46
528.326	54
528.379	38
528.431	50
528.484	52
528.536	52
528.588	48
528.641	52
528.693	50
528.745	52
528.798	44
528.85	46
528.903	48
528.955	48
529.007	50
529.06	50
529.112	54
529.164	50
529.217	44
529.269	46
529.322	54
529.374	48
529.426	52
529.479	54
529.531	52
529.584	56
529.636	42
529.688	46
529.741	56
529.793	52
529.845	58
529.898	58
529.95	58
530.003	44
530.055	46
530.107	50
530.16	52
530.212	48
530.264	50
530.317	50
530.369	50
530.422	40
530.474	50
530.526	48
530.579	42
530.631	40
530.683	50
530.736	58
530.788	54
530.841	48
530.893	54
530.945	40
530.998	48
531.05	44
531.102	48
531.155	60
531.207	58
531.259	56
531.312	48
531.364	64
531.417	52
531.469	48
531.521	46
531.574	60
531.626	60
531.678	54
531.731	56
531.783	56
531.835	56
531.888	48
531.94	48
531.992	54
532.045	60
532.097	46
532.15	48
532.202	54
532.254	62
532.307	50
532.359	52
532.411	58
532.464	56
532.516	54
532.568	52
532.621	56
532.673	52
532.726	58
532.778	68
532.83	56
532.883	62
532.935	54
532.987	58
533.04	58
533.092	64
533.144	56
533.197	48
533.249	64
533.301	56
533.354	58
533.406	54
533.458	52
533.511	64
533.563	56
533.615	60
533.668	60
533.72	58
533.773	68
533.825	64
533.877	82
533.93	68
533.982	66
534.034	60
534.087	66
534.139	68
534.191	68
534.244	68
534.296	56
534.348	68
534.401	84
534.453	74
534.505	90
534.558	74
534.61	68
534.662	62
534.715	96
534.767	76
534.819	78
534.872	88
534.924	92
534.976	94
535.029	88
535.081	88
535.133	102
535.186	96
535.238	100
535.29	104
535.343	108
535.395	100
535.447	94
535.5	80
535.552	96
535.604	92
535.657	76
535.709	88
535.761	80
535.814	90
535.866	70
535.918	76
535.971	82
536.023	72
536.075	76
536.128	66
536.18	86
536.232	82
536.285	74
536.337	66
536.389	72
536.442	76
536.494	72
536.546	60
536.599	68
536.651	76
536.703	72
536.755	68
536.808	68
536.86	64
536.912	64
536.965	72
537.017	74
537.069	76
537.122	72
537.174	70
537.226	66
537.279	66
537.331	62
537.383	70
537.436	66
537.488	70
537.54	52
537.593	72
537.645	70
537.697	70
537.75	62
537.802	64
537.854	70
537.906	80
537.959	62
538.011	62
538.063	76
538.116	80
538.168	62
538.22	76
538.273	78
538.325	84
538.377	72
538.43	70
538.482	82
538.534	76
538.586	64
538.639	70
538.691	82
538.743	66
538.796	64
538.848	70
538.9	76
538.953	70
539.005	64
539.057	66
539.109	70
539.162	80
539.214	74
539.266	68
539.319	76
539.371	76
539.423	70
539.476	64
539.528	84
539.58	70
539.633	78
539.685	72
539.737	84
539.789	62
539.842	76
539.894	74
539.946	72
539.999	72
540.051	78
540.103	70
540.155	86
540.208	72
540.26	80
540.312	66
540.365	78
540.417	84
540.469	70
540.521	70
540.574	78
540.626	70
540.678	76
540.731	76
540.783	86
540.835	82
540.888	78
540.94	76
540.992	78
541.044	74
541.097	76
541.149	64
541.201	84
541.254	92
541.306	88
541.358	86
541.41	84
541.463	76
541.515	82
541.567	80
541.62	92
541.672	92
541.724	92
541.776	78
541.829	94
541.881	82
541.933	84
541.985	74
542.038	96
542.09	78
542.142	78
542.195	74
542.247	88
542.299	88
542.351	92
542.404	88
542.456	92
542.508	74
542.56	82
542.613	84
542.665	88
542.717	100
542.77	92
542.822	80
542.874	84
542.926	92
542.979	94
543.031	80
543.083	90
543.135	90
543.188	78
543.24	96
543.292	88
543.344	86
543.397	94
543.449	82
543.501	100
543.554	104
543.606	90
543.658	98
543.71	100
543.763	94
543.815	98
543.867	92
543.919	108
543.972	102
544.024	98
544.076	94
544.128	102
544.181	88
544.233	92
544.285	102
544.337	106
544.39	112
544.442	94
544.494	98
544.547	104
544.599	108
544.651	92
544.703	102
544.755	104
544.808	108
544.86	110
544.912	94
544.965	116
545.017	114
545.069	100
545.121	100
545.174	104
545.226	114
545.278	104
545.33	94
545.383	118
545.435	116
545.487	114
545.539	94
545.591	104
545.644	120
545.696	110
545.748	118
545.8	106
545.853	104
545.905	114
545.957	114
546.009	108
546.062	114
546.114	108
546.166	114
546.218	106
546.271	110
546.323	114
546.375	112
546.427	122
546.48	116
546.532	100
546.584	112
546.636	116
546.689	108
546.741	126
546.793	114
546.845	110
546.898	134
546.95	122
547.002	110
547.054	128
547.106	120
547.159	120
547.211	120
547.263	132
547.315	116
547.368	130
547.42	134
547.472	126
547.524	134
547.577	126
547.629	116
547.681	136
547.733	144
547.785	130
547.838	138
547.89	136
547.942	130
547.994	140
548.047	130
548.099	154
548.151	128
548.203	138
548.255	136
548.308	130
548.36	138
548.412	132
548.464	128
548.517	136
548.569	132
548.621	146
548.673	122
548.725	132
548.778	150
548.83	140
548.882	136
548.934	134
548.987	148
549.039	148
549.091	136
549.143	144
549.195	166
549.248	142
549.3	134
549.352	136
549.404	140
549.456	148
549.509	148
549.561	148
549.613	144
549.665	154
549.718	162
549.77	154
549.822	142
549.874	158
549.926	146
549.979	158
550.031	166
550.083	158
550.135	152
550.187	172
550.24	166
550.292	168
550.344	160
550.396	170
550.448	166
550.501	176
550.553	166
550.605	172
550.657	172
550.709	158
550.762	172
550.814	184
550.866	174
550.918	178
550.97	192
551.023	184
551.075	192
551.127	192
551.179	186
551.231	196
551.284	204
551.336	206
551.388	200
551.44	202
551.492	218
551.545	216
551.597	228
551.649	234
551.701	236
551.753	248
551.806	240
551.858	272
551.91	290
551.962	286
552.014	306
552.067	338
552.119	354
552.171	382
552.223	424
552.275	524
552.327	626
552.38	870
552.432	1530
552.484	3248
552.536	6328
552.588	12530
552.641	22364
552.693	32352
552.745	23948
552.797	11802
552.849	4524
552.901	1736
552.954	976
553.006	710
553.058	540
553.11	454
553.162	414
553.215	348
553.267	348
553.319	322
553.371	282
553.423	272
553.475	268
553.528	266
553.58	266
553.632	250
553.684	242
553.736	246
553.788	244
553.841	232
553.893	210
553.945	208
553.997	224
554.049	222
554.102	222
554.154	220
554.206	208
554.258	220
554.31	214
554.362	216
554.414	212
554.467	220
554.519	218
554.571	228
554.623	230
554.675	220
554.727	214
554.78	220
554.832	198
554.884	212
554.936	214
554.988	228
555.04	220
555.093	226
555.145	218
555.197	222
555.249	222
555.301	224
555.353	214
555.406	228
555.458	208
555.51	226
555.562	232
555.614	228
555.666	230
555.719	230
555.771	216
555.823	232
555.875	226
555.927	234
555.979	230
556.031	240
556.084	226
556.136	226
556.188	222
556.24	228
556.292	244
556.344	252
556.396	234
556.449	230
556.501	252
556.553	246
556.605	248
556.657	254
556.709	254
556.762	264
556.814	250
556.866	254
556.918	262
556.97	264
557.022	234
557.074	246
557.127	248
557.179	270
557.231	260
557.283	262
557.335	258
557.387	266
557.439	266
557.492	264
557.544	258
557.596	254
557.648	246
557.7	274
557.752	278
557.804	260
557.856	234
557.909	262
557.961	270
558.013	280
558.065	276
558.117	268
558.169	268
558.221	262
558.273	264
558.326	278
558.378	284
558.43	256
558.482	278
558.534	274
558.586	278
558.638	280
558.691	296
558.743	306
558.795	282
558.847	276
558.899	274
558.951	280
559.003	280
559.055	268
559.108	286
559.16	298
559.212	288
559.264	294
559.316	290
559.368	292
559.42	276
559.472	272
559.525	262
559.577	284
559.629	280
559.681	288
559.733	280
559.785	294
559.837	298
559.889	284
559.941	290
559.994	312
560.046	318
560.098	320
560.15	302
560.202	316
560.254	306
560.306	306
560.358	304
560.41	332
560.463	296
560.515	324
560.567	292
560.619	308
560.671	330
560.723	314
560.775	314
560.827	316
560.879	332
560.932	326
560.984	316
561.036	320
561.088	332
561.14	330
561.192	318
561.244	336
561.296	324
561.348	330
561.4	328
561.453	340
561.505	338
561.557	346
561.609	330
561.661	356
561.713	340
561.765	342
561.817	360
561.869	364
561.921	338
561.974	356
562.026	356
562.078	346
562.13	376
562.182	372
562.234	372
562.286	376
562.338	376
562.39	356
562.442	368
562.494	362
562.547	362
562.599	378
562.651	376
562.703	392
562.755	384
562.807	378
562.859	376
562.911	398
562.963	404
563.015	390
563.067	390
563.12	400
563.172	386
563.224	426
563.276	398
563.328	404
563.38	418
563.432	430
563.484	418
563.536	422
563.588	436
563.64	420
563.692	442
563.744	446
563.797	460
563.849	470
563.901	450
563.953	464
564.005	444
564.057	454
564.109	478
564.161	496
564.213	480
564.265	498
564.317	488
564.369	476
564.421	472
564.474	480
564.526	480
564.578	480
564.63	460
564.682	482
564.734	470
564.786	470
564.838	476
564.89	460
564.942	454
564.994	444
565.046	462
565.098	440
565.15	462
565.202	446
565.255	472
565.307	464
565.359	444
565.411	456
565.463	484
565.515	460
565.567	466
565.619	450
565.671	456
565.723	468
565.775	456
565.827	472
565.879	466
565.931	466
565.983	458
566.035	458
566.087	476
566.139	484
566.192	462
566.244	492
566.296	492
566.348	496
566.4	476
566.452	474
566.504	502
566.556	490
566.608	492
566.66	498
566.712	502
566.764	480
566.816	512
566.868	516
566.92	486
566.972	514
567.024	490
567.076	496
567.128	506
567.18	498
567.232	506
567.285	510
567.337	522
567.389	520
567.441	534
567.493	538
567.545	534
567.597	548
567.649	524
567.701	560
567.753	520
567.805	562
567.857	552
567.909	540
567.961	530
568.013	538
568.065	548
568.117	553.97
568.169	530.35
568.221	542.161
568.273	520.663
568.325	536.09
568.377	550.888
568.429	597.461
568.481	548.475
568.533	574.286
568.585	576.772
568.637	569.376
568.69	564.493
568.742	578.362
568.794	594.359
568.846	564.451
568.898	561.571
568.95	558.542
569.002	596.67
569.054	578.332
569.106	588.082
569.158	581.439
569.21	591.494
569.262	594.513
569.314	593.777
569.366	603.93
569.418	611.76
569.47	610.554
569.522	606.077
569.574	610.952
569.626	601.356
569.678	609.713
569.73	617.881
569.782	629.257
569.834	623.704
569.886	621.007
569.938	633.246
569.99	637.734
570.042	635.4
570.094	642.302
570.146	620.643
570.198	649.073
570.25	670.258
570.302	651.99
570.354	643.22
570.406	663.399
570.458	679.71
570.51	679.969
570.562	681.551
570.614	682.428
570.666	692.131
570.718	688.407
570.77	697.723
570.822	694.027
570.874	708.2
570.926	683.669
570.978	706.762
571.03	728.851
571.082	721.868
571.134	720.984
571.186	749.897
571.238	746.902
571.29	750.668
571.342	764.995
571.394	755.84
571.446	762.741
571.498	770.962
571.55	766.121
571.602	776.782
571.654	797.061
571.706	810.373
571.758	813.133
571.81	818.783
571.862	817.001
571.914	830.55
571.966	840.218
572.018	843.445
572.07	853.957
572.122	867.782
572.174	873.074
572.226	883.13
572.278	898.09
572.33	900.592
572.382	920.184
572.434	926.389
572.486	903.643
572.538	958.811
572.59	966.35
572.642	943.856
572.694	966.287
572.746	1001.7
572.798	996.94
572.85	1002.99
572.902	985.343
572.954	1006.84
573.006	1028.71
573.058	1039.51
573.11	1044.22
573.162	1081.49
573.214	1095.12
573.266	1120.64
573.312	1080
573.364	1148
573.416	1126
573.469	1162
573.521	1188
573.573	1212
573.625	1192
573.677	1266
573.73	1292
573.782	1278
573.834	1290
573.886	1360
573.938	1362
573.991	1372
574.043	1414
574.095	1368
574.147	1402
574.199	1482
574.252	1462
574.304	1514
574.356	1540
574.408	1564
574.46	1568
574.513	1616
574.565	1608
574.617	1684
574.669	1690
574.721	1696
574.774	1716
574.826	1724
574.878	1788
574.93	1790
574.982	1834
575.035	1918
575.087	1934
575.139	1940
575.191	1980
575.243	1996
575.296	1982
575.348	1974
575.4	2000
575.452	2080
575.504	2058
575.556	2076
575.609	2064
575.661	2092
575.713	2092
575.765	2090
575.817	2078
575.87	2076
575.922	2106
575.974	2126
576.026	2070
576.078	2166
576.131	2066
576.183	2086
576.235	2062
576.287	2038
576.339	2018
576.391	1960
576.444	2024
576.496	1986
576.548	1956
576.6	1926
576.652	1976
576.705	1944
576.757	1872
576.809	1916
576.861	1858
576.913	1822
576.965	1844
577.018	1794
577.07	1776
577.122	1776
577.174	1732
577.226	1706
577.279	1648
577.331	1650
577.383	1632
577.435	1592
577.487	1586
577.539	1584
577.592	1596
577.644	1576
577.696	1560
577.748	1524
577.8	1538
577.852	1490
577.905	1492
577.957	1480
578.009	1468
578.061	1452
578.113	1454
578.165	1456
578.218	1428
578.27	1420
578.322	1422
578.374	1362
578.426	1398
578.478	1418
578.531	1378
578.583	1362
578.635	1372
578.687	1372
578.739	1354
578.791	1380
578.844	1350
578.896	1312
578.948	1336
579	1372
579.052	1358
579.104	1300
579.157	1320
579.209	1326
579.261	1336
579.313	1334
579.365	1310
579.417	1330
579.47	1310
579.522	1344
579.574	1312
579.626	1338
579.678	1326
579.73	1332
579.782	1344
579.835	1360
579.887	1332
579.939	1344
579.991	1332
580.043	1316
580.095	1330
580.148	1276
580.2	1306
580.252	1332
580.304	1346
580.356	1322
580.408	1330
580.46	1358
580.513	1344
580.565	1350
580.617	1320
580.669	1308
580.721	1314
580.773	1344
580.826	1354
580.878	1356
580.93	1378
580.982	1334
581.034	1348
581.086	1310
581.138	1350
581.191	1344
581.243	1328
581.295	1364
581.347	1368
581.399	1318
581.451	1302
581.503	1380
581.556	1360
581.608	1354
581.66	1378
581.712	1336
581.764	1362
581.816	1364
581.868	1376
581.92	1402
581.973	1344
582.025	1416
582.077	1400
582.129	1418
582.181	1404
582.233	1412
582.285	1372
582.338	1372
582.39	1416
582.442	1424
582.494	1426
582.546	1412
582.598	1398
582.65	1412
582.703	1394
582.755	1430
582.807	1402
582.859	1442
582.911	1422
582.963	1440
583.015	1476
583.067	1400
583.12	1416
583.172	1436
583.224	1454
583.276	1468
583.328	1488
583.38	1460
583.432	1486
583.484	1498
583.537	1488
583.589	1506
583.641	1482
583.693	1476
583.745	1516
583.797	1510
583.849	1540
583.901	1512
583.953	1556
584.006	1536
584.058	1530
584.11	1526
584.162	1524
584.214	1560
584.266	1538
584.318	1534
584.37	1558
584.423	1510
584.475	1612
584.527	1600
584.579	1582
584.631	1582
584.683	1586
584.735	1604
584.787	1626
584.839	1642
584.892	1604
584.944	1654
584.996	1638
585.048	1662
585.1	1636
585.152	1656
585.204	1614
585.256	1640
585.308	1650
585.361	1716
585.413	1700
585.465	1654
585.517	1700
585.569	1698
585.621	1708
585.673	1726
585.725	1724
585.777	1708
585.83	1710
585.882	1728
585.934	1720
585.986	1708
586.038	1780
586.09	1746
586.142	1698
586.194	1762
586.246	1716
586.298	1794
586.351	1782
586.403	1804
586.455	1760
586.507	1788
586.559	1804
586.611	1798
586.663	1784
586.715	1794
586.767	1774
586.819	1822
586.872	1804
586.924	1796
586.976	1828
587.028	1780
587.08	1848
587.132	1852
587.184	1830
587.236	1804
587.288	1780
587.34	1826
587.392	1844
587.445	1826
587.497	1784
587.549	1846
587.601	1796
587.653	1824
587.705	1810
587.757	1886
587.809	1826
587.861	1818
587.913	1834
587.965	1842
588.018	1802
588.07	1860
588.122	1850
588.174	1838
588.226	1838
588.278	1852
588.33	1840
588.382	1870
588.434	1870
588.486	1850
588.538	1854
588.59	1874
588.642	1874
588.695	1884
588.747	1876
588.799	1906
588.851	1920
588.903	1848
588.955	1924
589.007	1872
589.059	1898
589.111	1922
589.163	1884
589.215	1928
589.267	1926
589.319	1916
589.372	1932
589.424	1892
589.476	1892
589.528	1934
589.58	1918
589.632	1926
589.684	1920
589.736	1950
589.788	1930
589.84	1924
589.892	1928
589.944	1926
589.996	1910
590.048	1962
590.101	1908
590.153	1954
590.205	1894
590.257	1916
590.309	1932
590.361	1928
590.413	1922
590.465	1892
590.517	1974
590.569	1878
590.621	1926
590.673	1880
590.725	1924
590.777	1912
590.829	1912
590.881	1896
590.933	1874
590.986	1900
591.038	1870
591.09	1890
591.142	1870
591.194	1894
591.246	1862
591.298	1908
591.35	1918
591.402	1932
591.454	1886
591.506	1888
591.558	1900
591.61	1916
591.662	1860
591.714	1840
591.766	1884
591.818	1848
591.87	1874
591.923	1848
591.975	1876
592.027	1862
592.079	1870
592.131	1886
592.183	1856
592.235	1846
592.287	1858
592.339	1888
592.391	1868
592.443	1900
592.495	1874
592.547	1868
592.599	1898
592.651	1898
592.703	1862
592.755	1856
592.807	1810
592.859	1854
592.911	1836
592.963	1832
593.015	1858
593.068	1850
593.12	1842
593.172	1890
593.224	1848
593.276	1872
593.328	1844
593.38	1862
593.432	1872
593.484	1892
593.536	1844
593.588	1808
593.64	1820
593.692	1866
593.744	1860
593.796	1846
593.848	1874
593.9	1882
593.952	1816
594.004	1844
594.056	1856
594.108	1890
594.16	1842
594.212	1892
594.264	1874
594.316	1924
594.368	1920
594.42	1898
594.472	1934
594.524	1860
594.576	1894
594.628	1888
594.68	1878
594.732	1900
594.784	1912
594.837	1886
594.889	1924
594.941	1932
594.993	1946
595.045	1940
595.097	2006
595.149	1950
595.201	1914
595.253	1990
595.305	1936
595.357	1952
595.409	2016
595.461	1984
595.513	1968
595.565	1986
595.617	1996
595.669	1998
595.721	1972
595.773	1980
595.825	2034
595.877	2024
595.929	1984
595.981	1990
596.033	1998
596.085	2014
596.137	2010
596.189	2028
596.241	1968
596.293	1998
596.345	2018
596.397	2072
596.449	2070
596.501	2070
596.553	2062
596.605	2080
596.657	2058
596.709	2086
596.761	2134
596.813	2102
596.865	2048
596.917	2064
596.969	2068
597.021	2120
597.073	2074
597.125	2078
597.177	2144
597.229	2094
597.281	2092
597.333	2098
597.385	2106
597.437	2066
597.489	2072
597.541	2136
597.593	2112
597.645	2124
597.697	2140
597.749	2144
597.801	2152
597.853	2110
597.905	2128
597.957	2136
598.009	2146
598.061	2156
598.113	2152
598.165	2102
598.217	2146
598.269	2100
598.321	2122
598.373	2158
598.425	2122
598.477	2170
598.529	2168
598.581	2116
598.633	2136
598.685	2190
598.737	2102
598.789	2150
598.841	2126
598.893	2154
598.945	2170
598.997	2182
599.049	2140
599.101	2154
599.153	2214
599.205	2168
599.257	2174
599.309	2160
599.361	2144
599.413	2222
599.465	2198
599.517	2220
599.569	2126
599.62	2160
599.672	2202
599.724	2138
599.776	2202
599.828	2188
599.88	2168
599.932	2172
599.984	2144
600.036	2170
600.088	2068
600.14	2188
600.192	2172
600.244	2178
600.296	2204
600.348	2172
600.4	2194
600.452	2124
600.504	2122
600.556	2146
600.608	2118
600.66	2174
600.712	2170
600.764	2182
600.816	2234
600.868	2166
600.92	2182
600.972	2156
601.024	2200
601.076	2198
601.128	2174
601.18	2174
601.232	2168
601.284	2210
601.335	2196
601.387	2174
601.439	2182
601.491	2206
601.543	2196
601.595	2144
601.647	2200
601.699	2192
601.751	2200
601.803	2184
601.855	2178
601.907	2252
601.959	2212
602.011	2196
602.063	2176
602.115	2224
602.167	2198
602.219	2228
602.271	2162
602.323	2222
602.375	2202
602.427	2208
602.478	2238
602.53	2194
602.582	2234
602.634	2266
602.686	2284
602.738	2228
602.79	2152
602.842	2232
602.894	2248
602.946	2220
602.998	2262
603.05	2242
603.102	2228
603.154	2158
603.206	2250
603.258	2232
603.31	2230
603.362	2248
603.413	2204
603.465	2230
603.517	2256
603.569	2240
603.621	2240
603.673	2272
603.725	2216
603.777	2276
603.829	2264
603.881	2276
603.933	2238
603.985	2286
604.037	2244
604.089	2262
604.141	2222
604.193	2284
604.244	2304
604.296	2226
604.348	2272
604.4	2248
604.452	2300
604.504	2268
604.556	2286
604.608	2294
604.66	2276
604.712	2282
604.764	2272
604.816	2254
604.868	2254
604.92	2290
604.971	2324
605.023	2276
605.075	2286
605.127	2292
605.179	2298
605.231	2246
605.283	2250
605.335	2288
605.387	2308
605.439	2294
605.491	2272
605.543	2276
605.594	2276
605.646	2286
605.698	2348
605.75	2306
605.802	2242
605.854	2252
605.906	2236
605.958	2280
606.01	2288
606.062	2252
606.114	2266
606.166	2274
606.217	2254
606.269	2254
606.321	2250
606.373	2294
606.425	2318
606.477	2236
606.529	2316
606.581	2234
606.633	2258
606.685	2306
606.737	2284
606.789	2290
606.84	2320
606.892	2260
606.944	2278
606.996	2262
607.048	2314
607.1	2282
607.152	2164
607.204	2270
607.256	2302
607.308	2250
607.359	2294
607.411	2278
607.463	2288
607.515	2288
607.567	2336
607.619	2264
607.671	2292
607.723	2306
607.775	2300
607.827	2346
607.878	2320
607.93	2326
607.982	2334
608.034	2358
608.086	2322
608.138	2292
608.19	2354
608.242	2324
608.294	2386
608.345	2314
608.397	2368
608.449	2378
608.501	2370
608.553	2288
608.605	2348
608.657	2364
608.709	2380
608.761	2380
608.812	2358
608.864	2392
608.916	2384
608.968	2320
609.02	2386
609.072	2366
609.124	2372
609.176	2394
609.228	2396
609.279	2408
609.331	2388
609.383	2394
609.435	2408
609.487	2430
609.539	2408
609.591	2426
609.643	2358
609.694	2424
609.746	2426
609.798	2458
609.85	2422
609.902	2374
609.954	2380
610.006	2412
610.058	2486
610.109	2450
610.161	2426
610.213	2428
610.265	2450
610.317	2484
610.369	2468
610.421	2460
610.473	2420
610.524	2474
610.576	2464
610.628	2492
610.68	2490
610.732	2466
610.784	2470
610.836	2442
610.887	2486
610.939	2478
610.991	2492
611.043	2446
611.095	2444
611.147	2506
611.199	2498
611.25	2540
611.302	2476
611.354	2506
611.406	2476
611.458	2508
611.51	2498
611.562	2498
611.614	2518
611.665	2458
611.717	2538
611.769	2474
611.821	2548
611.873	2556
611.925	2546
611.977	2536
612.028	2536
612.08	2540
612.132	2500
612.184	2526
612.236	2480
612.288	2538
612.339	2610
612.391	2608
612.443	2572
612.495	2576
612.547	2578
612.599	2540
612.651	2600
612.702	2498
612.754	2600
612.806	2546
612.858	2584
612.91	2578
612.962	2594
613.013	2632
613.065	2588
613.117	2584
613.169	2608
613.221	2618
613.273	2620
613.325	2586
613.376	2620
613.428	2626
613.48	2604
613.532	2644
613.584	2598
613.635	2660
613.687	2664
613.739	2620
613.791	2658
613.843	2680
613.895	2654
613.947	2664
613.998	2664
614.05	2702
614.102	2660
614.154	2736
614.206	2646
614.258	2676
614.309	2730
614.361	2674
614.413	2722
614.465	2738
614.517	2666
614.568	2700
614.62	2724
614.672	2692
614.724	2712
614.776	2760
614.828	2730
614.879	2758
614.931	2722
614.983	2724
615.035	2708
615.087	2810
615.139	2714
615.19	2798
615.242	2778
615.294	2794
615.346	2756
615.398	2820
615.449	2802
615.501	2838
615.553	2790
615.605	2788
615.657	2776
615.709	2818
615.76	2818
615.812	2816
615.864	2796
615.916	2864
615.968	2808
616.019	2757.89
616.071	2844.02
616.123	2853.03
616.175	2869.92
616.227	2866.16
616.278	2872.09
616.33	2881.12
616.382	2826.74
616.434	2882.02
616.486	2893.78
616.537	2863.39
616.589	2914.92
616.641	2894.19
616.693	2906.27
616.745	2901.85
616.797	2901.26
616.848	2885.75
616.9	2923.93
616.952	2864.6
617.004	2907.41
617.056	2918.26
617.107	2852.32
617.159	2946.74
617.211	2902.22
617.263	2922.87
617.315	2943.18
617.366	2907.29
617.418	2927.77
617.47	2925.21
617.522	2921.96
617.573	2931.99
617.625	2930.96
617.677	2934.95
617.729	2978.87
617.781	2950.47
617.832	2968.46
617.884	2953.6
617.936	2941.46
617.988	2945.65
618.04	2934.44
618.091	2981.51
618.143	2942.73
618.195	2996.54
618.247	2992.25
618.299	2968.27
618.35	2992.01
618.402	3008.79
618.454	3004.65
618.506	3027.07
618.557	3036.88
618.609	3019.35
618.661	2986.26
618.713	2994.82
618.765	3007.99
618.816	2989.95
618.868	3028.05
618.92	3018.12
618.972	2992.71
619.023	3016.87
619.075	3004.02
619.127	3008.87
619.179	3012.8
619.231	3003.47
619.282	3019.82
619.334	3055.07
619.386	3052.62
619.438	3035.34
619.49	3042.08
619.541	3054.84
619.593	3045
619.645	3063.17
619.697	3055.81
619.748	3080.05
619.8	3099.27
619.852	3046.86
619.904	3054.06
619.955	3084.32
620.007	3090.18
620.059	3076.42
620.111	3044.67
620.162	3024.79
620.214	3087.51
620.266	3109.03
620.318	3124.39
620.37	3073.16
620.421	3059.86
620.473	3062.01
620.525	3095.72
620.577	3095.62
620.628	3118.32
620.68	3122.81
620.732	3097.81
620.784	3098.13
620.835	3102.4
620.887	3114.17
620.939	3099.71
620.991	3117.91
621.042	3104.93
621.094	3086.12
621.146	3115.37
621.198	3068.69
621.249	3089
621.269	3124
621.321	3094
621.373	3110
621.425	3114
621.477	3132
621.529	3084
621.581	3120
621.633	3094
621.685	3084
621.737	3138
621.789	3110
621.841	3158
621.893	3040
621.945	3064
621.997	3182
622.049	3172
622.101	3186
622.153	3082
622.205	3154
622.257	3198
622.309	3156
622.361	3164
622.413	3144
622.465	3114
622.517	3100
622.569	3142
622.621	3150
622.673	3158
622.725	3148
622.776	3154
622.828	3182
622.88	3184
622.932	3174
622.984	3134
623.036	3194
623.088	3212
623.14	3170
623.192	3208
623.244	3162
623.296	3152
623.348	3188
623.4	3186
623.452	3190
623.504	3198
623.556	3198
623.608	3202
623.66	3160
623.712	3172
623.764	3172
623.816	3192
623.868	3242
623.92	3130
623.972	3162
624.024	3214
624.076	3214
624.128	3130
624.18	3236
624.232	3220
624.284	3202
624.336	3234
624.388	3212
624.44	3234
624.492	3306
624.544	3264
624.596	3246
624.648	3228
624.699	3260
624.751	3240
624.803	3248
624.855	3206
624.907	3280
624.959	3278
625.011	3260
625.063	3278
625.115	3310
625.167	3232
625.219	3276
625.271	3302
625.323	3256
625.375	3320
625.427	3310
625.479	3250
625.531	3318
625.583	3254
625.635	3324
625.687	3286
625.739	3344
625.791	3268
625.843	3340
625.895	3294
625.946	3310
625.998	3328
626.05	3286
626.102	3312
626.154	3306
626.206	3286
626.258	3252
626.31	3352
626.362	3346
626.414	3342
626.466	3296
626.518	3356
626.57	3372
626.622	3356
626.674	3346
626.726	3332
626.778	3394
626.83	3400
626.882	3368
626.934	3376
626.985	3362
627.037	3396
627.089	3416
627.141	3432
627.193	3402
627.245	3342
627.297	3402
627.349	3416
627.401	3300
627.453	3416
627.505	3424
627.557	3442
627.609	3422
627.661	3426
627.713	3436
627.765	3452
627.817	3434
627.868	3458
627.92	3460
627.972	3404
628.024	3454
628.076	3480
628.128	3472
628.18	3478
628.232	3488
628.284	3500
628.336	3432
628.388	3468
628.44	3464
628.492	3502
628.544	3492
628.596	3448
628.647	3512
628.699	3472
628.751	3516
628.803	3552
628.855	3508
628.907	3510
628.959	3530
629.011	3446
629.063	3568
629.115	3572
629.167	3502
629.219	3534
629.271	3480
629.322	3634
629.374	3586
629.426	3616
629.478	3580
629.53	3544
629.582	3550
629.634	3612
629.686	3622
629.738	3598
629.79	3564
629.842	3604
629.894	3566
629.945	3596
629.997	3646
630.049	3614
630.101	3628
630.153	3582
630.205	3636
630.257	3674
630.309	3626
630.361	3670
630.413	3632
630.465	3654
630.517	3654
630.568	3722
630.62	3646
630.672	3652
630.724	3638
630.776	3656
630.828	3756
630.88	3686
630.932	3702
630.984	3684
631.036	3710
631.088	3680
631.14	3702
631.191	3728
631.243	3724
631.295	3752
631.347	3720
631.399	3714
631.451	3796
631.503	3772
631.555	3672
631.607	3780
631.659	3810
631.71	3758
631.762	3836
631.814	3778
631.866	3808
631.918	3812
631.97	3816
632.022	3826
632.074	3790
632.126	3826
632.178	3842
632.229	3844
632.281	3832
632.333	3858
632.385	3820
632.437	3828
632.489	3906
632.541	3836
632.593	3896
632.645	3870
632.696	3894
632.748	3924
632.8	3924
632.852	3930
632.904	3930
632.956	3960
633.008	3984
633.06	3934
633.112	3982
633.164	3998
633.215	4004
633.267	3956
633.319	3984
633.371	3996
633.423	4018
633.475	4036
633.527	4018
633.579	4000
633.63	4016
633.682	4034
633.734	4074
633.786	4044
633.838	4056
633.89	3998
633.942	4036
633.994	4050
634.046	4100
634.097	4086
634.149	4114
634.201	4090
634.253	4126
634.305	4114
634.357	4130
634.409	4206
634.461	4104
634.512	4128
634.564	4236
634.616	4268
634.668	4170
634.72	4188
634.772	4274
634.824	4270
634.876	4250
634.927	4322
634.979	4196
635.031	4330
635.083	4320
635.135	4304
635.187	4340
635.239	4356
635.291	4338
635.342	4428
635.394	4428
635.446	4358
635.498	4448
635.55	4504
635.602	4466
635.654	4446
635.705	4594
635.757	4572
635.809	4564
635.861	4526
635.913	4552
635.965	4640
636.017	4682
636.068	4702
636.12	4758
636.172	4794
636.224	4744
636.276	4882
636.328	4834
636.38	4908
636.431	4924
636.483	5014
636.535	5010
636.587	5132
636.639	5046
636.691	5118
636.743	5208
636.794	5238
636.846	5326
636.898	5418
636.95	5454
637.002	5432
637.054	5532
637.106	5576
637.157	5682
637.209	5696
637.261	5730
637.313	5712
637.365	5856
637.417	5830
637.469	5946
637.52	6002
637.572	6000
637.624	5998
637.676	6096
637.728	6056
637.78	6164
637.831	6204
637.883	6216
637.935	6194
637.987	6320
638.039	6234
638.091	6218
638.143	6318
638.194	6334
638.246	6270
638.298	6240
638.35	6280
638.402	6246
638.454	6292
638.505	6206
638.557	6272
638.609	6102
638.661	6178
638.713	6174
638.765	6082
638.816	6020
638.868	5988
638.92	6008
638.972	5944
639.024	5940
639.076	5908
639.127	5922
639.179	5828
639.231	5748
639.283	5768
639.335	5762
639.387	5772
639.438	5698
639.49	5650
639.542	5616
639.594	5558
639.646	5608
639.698	5574
639.749	5536
639.801	5476
639.853	5456
639.905	5440
639.957	5384
640.008	5402
640.06	5452
640.112	5440
640.164	5378
640.216	5354
640.268	5312
640.319	5324
640.371	5302
640.423	5258
640.475	5308
640.527	5294
640.578	5182
640.63	5240
640.682	5196
640.734	5316
640.786	5188
640.838	5228
640.889	5188
640.941	5192
640.993	5166
641.045	5200
641.097	5152
641.148	5114
641.2	5212
641.252	5146
641.304	5156
641.356	5074
641.408	5232
641.459	5126
641.511	5150
641.563	5090
641.615	5092
641.667	5108
641.718	5124
641.77	5166
641.822	5088
641.874	5134
641.926	5144
641.977	5082
642.029	5184
642.081	5108
642.133	5082
642.185	5152
642.236	5166
642.288	5156
642.34	5170
642.392	5174
642.444	5124
642.495	5128
642.547	5074
642.599	5090
642.651	5188
642.703	5088
642.754	5166
642.806	5084
642.858	5112
642.91	5160
642.962	5106
643.013	5156
643.065	5200
643.117	5162
643.169	5150
643.221	5172
643.272	5184
643.324	5274
643.376	5134
643.428	5142
643.479	5144
643.531	5200
643.583	5190
643.635	5128
643.687	5234
643.738	5138
643.79	5208
643.842	5202
643.894	5146
643.946	5206
643.997	5164
644.049	5166
644.101	5206
644.153	5224
644.205	5308
644.256	5186
644.308	5198
644.36	5284
644.412	5252
644.463	5206
644.515	5308
644.567	5312
644.619	5182
644.671	5248
644.722	5320
644.774	5278
644.826	5242
644.878	5244
644.929	5256
644.981	5318
645.033	5296
645.085	5372
645.136	5246
645.188	5218
645.24	5330
645.292	5316
645.344	5366
645.395	5284
645.447	5322
645.499	5352
645.551	5328
645.602	5376
645.654	5380
645.706	5376
645.758	5412
645.81	5442
645.861	5330
645.913	5338
645.965	5360
646.017	5324
646.068	5376
646.12	5364
646.172	5396
646.224	5366
646.275	5422
646.327	5384
646.379	5406
646.431	5372
646.482	5354
646.534	5404
646.586	5438
646.638	5416
646.689	5418
646.741	5440
646.793	5482
646.845	5442
646.896	5506
646.948	5420
647	5504
647.052	5482
647.104	5490
647.155	5494
647.207	5498
647.259	5414
647.31	5566
647.362	5464
647.414	5570
647.466	5500
647.518	5518
647.569	5520
647.621	5612
647.673	5458
647.724	5548
647.776	5568
647.828	5520
647.88	5574
647.931	5550
647.983	5522
648.035	5622
648.087	5530
648.138	5510
648.19	5588
648.242	5556
648.294	5638
648.345	5538
648.397	5644
648.449	5616
648.501	5596
648.552	5722
648.604	5600
648.656	5670
648.708	5662
648.759	5618
648.811	5642
648.863	5648
648.915	5762
648.966	5718
649.018	5658
649.07	5750
649.121	5732
649.173	5730
649.225	5682
649.277	5694
649.328	5824
649.38	5620
649.432	5766
649.484	5670
649.535	5732
649.587	5738
649.639	5752
649.69	5818
649.742	5820
649.794	5754
649.846	5778
649.897	5864
649.949	5906
650.001	5928
650.053	5866
650.104	5920
650.156	5830
650.208	5812
650.259	5800
650.311	5912
650.363	5882
650.415	5922
650.466	5884
650.518	5888
650.57	5918
650.621	5970
650.673	5950
650.725	5940
650.777	5908
650.828	5960
650.88	5898
650.932	5966
650.984	5998
651.035	6032
651.087	5942
651.139	6002
651.19	6052
651.242	6044
651.294	6030
651.345	5994
651.397	6040
651.449	6094
651.501	6066
651.552	6052
651.604	6100
651.656	6056
651.707	6066
651.759	6076
651.811	6132
651.863	6164
651.914	6070
651.966	6170
652.018	6136
652.069	6190
652.121	6158
652.173	6196
652.224	6212
652.276	6212
652.328	6288
652.38	6184
652.431	6228
652.483	6228
652.535	6262
652.586	6256
652.638	6222
652.69	6262
652.741	6312
652.793	6248
652.845	6284
652.897	6336
652.948	6368
653	6334
653.052	6336
653.103	6330
653.155	6304
653.207	6388
653.258	6346
653.31	6400
653.362	6362
653.413	6396
653.465	6378
653.517	6412
653.568	6388
653.62	6408
653.672	6462
653.724	6482
653.775	6450
653.827	6462
653.879	6560
653.93	6430
653.982	6538
654.034	6506
654.085	6522
654.137	6504
654.189	6518
654.24	6650
654.292	6568
654.344	6602
654.395	6624
654.447	6550
654.499	6598
654.55	6666
654.602	6700
654.654	6640
654.705	6726
654.757	6772
654.809	6784
654.86	6732
654.912	6744
654.964	6718
655.016	6758
655.067	6838
655.119	6832
655.17	6804
655.222	6750
655.274	6794
655.326	6856
655.377	6860
655.429	6952
655.481	6912
655.532	6880
655.584	6972
655.635	6990
655.687	7026
655.739	6904
655.79	6996
655.842	7016
655.894	7006
655.945	6974
655.997	7042
656.049	7088
656.1	7116
656.152	7072
656.204	7062
656.255	7108
656.307	7142
656.359	7208
656.41	7160
656.462	7170
656.514	7184
656.565	7234
656.617	7158
656.669	7146
656.72	7204
656.772	7200
656.824	7238
656.875	7354
656.927	7262
656.979	7276
657.03	7260
657.082	7396
657.134	7434
657.185	7428
657.237	7368
657.288	7382
657.34	7418
657.392	7422
657.443	7486
657.495	7520
657.547	7534
657.598	7450
657.65	7358
657.702	7420
657.753	7582
657.805	7540
657.857	7554
657.908	7562
657.96	7596
658.011	7526
658.063	7522
658.115	7618
658.166	7524
658.218	7502
658.27	7538
658.321	7604
658.373	7666
658.425	7596
658.476	7622
658.528	7706
658.579	7648
658.631	7706
658.683	7754
658.734	7714
658.786	7668
658.838	7740
658.889	7706
658.941	7682
658.992	7796
659.044	7710
659.096	7640
659.147	7714
659.199	7750
659.251	7760
659.302	7722
659.354	7738
659.406	7746
659.457	7772
659.509	7750
659.56	7804
659.612	7734
659.664	7732
659.715	7762
659.767	7784
659.818	7842
659.87	7800
659.922	7834
659.973	7674
660.025	7722
660.077	7800
660.128	7868
660.18	7738
660.231	7836
660.283	7834
660.335	7662
660.386	7772
660.438	7774
660.49	7720
660.541	7786
660.593	7778
660.644	7804
660.696	7830
660.748	7774
660.799	7846
660.851	7874
660.902	7748
660.954	7810
661.006	7760
661.057	7774
661.109	7638
661.16	7786
661.212	7684
661.264	7738
661.315	7792
661.367	7778
661.418	7752
661.47	7752
661.522	7780
661.573	7742
661.625	7814
661.676	7704
661.728	7820
661.78	7736
661.831	7804
661.883	7830
661.934	7880
661.986	7760
662.038	7770
662.089	7732
662.141	7780
662.192	7778
662.244	7812
662.296	7790
662.347	7806
662.399	7816
662.45	7794
662.502	7744
662.554	7790
662.605	7964
662.657	7756
662.708	7838
662.76	7690
662.811	7800
662.863	7770
662.915	7752
662.966	7790
663.018	7708
663.069	7834
663.121	7740
663.173	7894
663.224	7834
663.276	7930
663.327	7838
663.379	7808
663.43	7730
663.482	7740
663.534	7766
663.585	7754
663.637	7778
663.688	7816
663.74	7768.57
663.792	7762.66
663.843	7794.56
663.895	7750.94
663.946	7800.92
663.998	7829.57
664.049	7858.49
664.101	7793.75
664.153	7750.77
664.204	7893.83
664.256	7880.04
664.307	7863.38
664.359	7850.15
664.41	7789.65
664.462	7855.76
664.513	7777.69
664.565	7776.96
664.617	7820.56
664.668	7820.87
664.72	7731.42
664.771	7798.13
664.823	7791.54
664.874	7799.84
664.926	7822.05
664.978	7773.82
665.029	7854.01
665.081	7793.69
665.132	7868.27
665.184	7801.62
665.235	7901.66
665.287	7800.69
665.339	7856.09
665.39	7814.55
665.442	7786.3
665.493	7827.25
665.545	7781.14
665.596	7803.61
665.648	7827.04
665.699	7827.17
665.751	7879.02
665.802	7877.71
665.854	7845.07
665.906	7837.21
665.957	7803.68
666.009	7813.32
666.06	7778.99
666.112	7809.79
666.163	7823.61
666.215	7824.89
666.266	7842.08
666.318	7861.46
666.37	7814.46
666.421	7855.04
666.473	7838.45
666.524	7832.11
666.576	7846.46
666.627	7832.84
666.679	7822.88
666.73	7806.37
666.782	7786.43
666.833	7823.36
666.885	7847.69
666.937	7800.51
666.988	7822.58
667.04	7796
667.091	7764.72
667.143	7783.42
667.194	7845.24
667.246	7870.4
667.297	7825.06
667.349	7824.67
667.4	7882.88
667.452	7879.01
667.503	7872.74
667.555	7822.08
667.607	7848.35
667.658	7853.51
667.71	7823.93
667.761	7800.28
667.813	7778.7
667.864	7826.7
667.916	7884.59
667.967	7870.1
668.019	7844.12
668.07	7774.37
668.122	7765.05
668.173	7780.7
668.225	7788.91
668.276	7767.68
668.328	7796.79
668.379	7854.1
668.431	7854.37
668.482	7867.57
668.534	7812.95
668.586	7788.53
668.637	7827.9
668.689	7785.68
668.74	7865.15
668.792	7828.23
668.843	7770.11
668.895	7789.78
668.935	7830
668.987	7910
669.038	7860
669.09	7786
669.142	7870
669.194	7808
669.245	7846
669.297	7878
669.349	7876
669.401	7826
669.453	7770
669.504	7784
669.556	7916
669.608	7874
669.66	7870
669.711	7766
669.763	7754
669.815	7820
669.867	7814
669.918	7858
669.97	7850
670.022	7814
670.074	7856
670.125	7746
670.177	7812
670.229	7872
670.281	7832
670.332	7834
670.384	7892
670.436	7832
670.488	7738
670.539	7930
670.591	8008
670.643	7838
670.695	7874
670.747	7838
670.798	7884
670.85	7832
670.902	7760
670.953	7812
671.005	7842
671.057	7882
671.109	7868
671.161	7812
671.212	7910
671.264	7820
671.316	7842
671.367	7862
671.419	7842
671.471	7900
671.523	7864
671.575	7840
671.626	7848
671.678	7854
671.73	7800
671.781	7934
671.833	7982
671.885	7860
671.937	7908
671.988	7904
672.04	7872
672.092	7852
672.144	7988
672.195	7982
672.247	7868
672.299	7904
672.351	7912
672.402	7870
672.454	7952
672.506	7974
672.558	7870
672.609	8010
672.661	7962
672.713	7918
672.765	7944
672.816	7932
672.868	7910
672.92	7982
672.971	7896
673.023	8048
673.075	8026
673.127	7972
673.178	8000
673.23	7974
673.282	8082
673.334	7922
673.385	7986
673.437	8040
673.489	8012
673.54	8002
673.592	8086
673.644	8004
673.696	8028
673.747	8100
673.799	8138
673.851	8162
673.903	8094
673.954	8074
674.006	8160
674.058	8224
674.109	8084
674.161	8170
674.213	8124
674.265	8136
674.316	8134
674.368	8298
674.42	8164
674.471	8286
674.523	8146
674.575	8192
674.627	8176
674.678	8182
674.73	8186
674.782	8276
674.833	8206
674.885	8150
674.937	8232
674.989	8256
675.04	8172
675.092	8230
675.144	8236
675.195	8242
675.247	8136
675.299	8420
675.351	8376
675.402	8344
675.454	8260
675.506	8332
675.557	8254
675.609	8370
675.661	8320
675.713	8228
675.764	8452
675.816	8286
675.868	8284
675.919	8266
675.971	8360
676.023	8400
676.074	8418
676.126	8424
676.178	8320
676.23	8396
676.281	8338
676.333	8440
676.385	8368
676.436	8368
676.488	8334
676.54	8470
676.591	8436
676.643	8408
676.695	8388
676.747	8464
676.798	8410
676.85	8458
676.902	8392
676.953	8402
677.005	8392
677.057	8422
677.108	8364
677.16	8420
677.212	8356
677.263	8462
677.315	8460
677.367	8458
677.419	8360
677.47	8394
677.522	8408
677.574	8402
677.625	8514
677.677	8420
677.729	8398
677.78	8410
677.832	8402
677.884	8392
677.935	8448
677.987	8440
678.039	8470
678.091	8356
678.142	8466
678.194	8458
678.246	8432
678.297	8468
678.349	8520
678.401	8472
678.452	8346
678.504	8506
678.556	8524
678.607	8408
678.659	8420
678.711	8446
678.762	8426
678.814	8404
678.866	8282
678.917	8470
678.969	8506
679.021	8498
679.072	8496
679.124	8398
679.176	8444
679.227	8336
679.279	8482
679.331	8394
679.382	8512
679.434	8452
679.486	8540
679.537	8534
679.589	8456
679.641	8502
679.692	8464
679.744	8512
679.796	8544
679.847	8452
679.899	8420
679.951	8424
680.003	8442
680.054	8466
680.106	8506
680.157	8584
680.209	8534
680.261	8548
680.312	8494
680.364	8536
680.416	8448
680.467	8596
680.519	8630
680.571	8548
680.622	8602
680.674	8522
680.726	8594
680.777	8440
680.829	8552
680.881	8558
680.932	8626
680.984	8622
681.036	8572
681.087	8560
681.139	8630
681.191	8522
681.242	8520
681.294	8694
681.346	8634
681.397	8636
681.449	8698
681.501	8656
681.552	8554
681.604	8644
681.656	8732
681.707	8734
681.759	8698
681.81	8730
681.862	8606
681.914	8658
681.965	8728
682.017	8724
682.069	8768
682.12	8612
682.172	8814
682.224	8598
682.275	8694
682.327	8740
682.379	8716
682.43	8754
682.482	8744
682.533	8702
682.585	8770
682.637	8632
682.688	8716
682.74	8776
682.792	8798
682.843	8784
682.895	8732
682.947	8732
682.998	8718
683.05	8800
683.102	8798
683.153	8696
683.205	8760
683.256	8676
683.308	8724
683.36	8726
683.411	8708
683.463	8726
683.515	8792
683.566	8746
683.618	8740
683.669	8718
683.721	8754
683.773	8700
683.824	8758
683.876	8758
683.928	8736
683.979	8704
684.031	8690
684.082	8580
684.134	8774
684.186	8694
684.237	8678
684.289	8638
684.341	8732
684.392	8730
684.444	8672
684.495	8702
684.547	8688
684.599	8688
684.65	8678
684.702	8694
684.754	8670
684.805	8596
684.857	8578
684.908	8586
684.96	8596
685.012	8708
685.063	8676
685.115	8642
685.166	8540
685.218	8636
685.27	8732
685.321	8684
685.373	8680
685.424	8626
685.476	8622
685.528	8566
685.579	8594
685.631	8610
685.683	8610
685.734	8664
685.786	8566
685.837	8622
685.889	8636
685.941	8458
685.992	8644
686.044	8636
686.095	8592
686.147	8522
686.199	8506
686.25	8562
686.302	8536
686.353	8598
686.405	8470
686.457	8448
686.508	8532
686.56	8622
686.611	8624
686.663	8548
686.715	8558
686.766	8456
686.818	8526
686.869	8576
686.921	8512
686.973	8502
687.024	8546
687.076	8544
687.127	8524
687.179	8574
687.231	8524
687.282	8602
687.334	8498
687.385	8528
687.437	8530
687.489	8598
687.54	8404
687.592	8544
687.643	8548
687.695	8518
687.747	8562
687.798	8484
687.85	8570
687.901	8554
687.953	8546
688.004	8514
688.056	8450
688.108	8504
688.159	8468
688.211	8504
688.262	8544
688.314	8442
688.366	8454
688.417	8578
688.469	8424
688.52	8448
688.572	8470
688.623	8512
688.675	8490
688.727	8512
688.778	8524
688.83	8476
688.881	8528
688.933	8510
688.984	8502
689.036	8488
689.088	8450
689.139	8538
689.191	8462
689.242	8450
689.294	8512
689.346	8466
689.397	8568
689.449	8454
689.5	8466
689.552	8542
689.603	8466
689.655	8442
689.706	8390
689.758	8434
689.81	8504
689.861	8470
689.913	8388
689.964	8434
690.016	8412
690.067	8428
690.119	8464
690.171	8394
690.222	8518
690.274	8468
690.325	8334
690.377	8344
690.428	8432
690.48	8376
690.531	8432
690.583	8420
690.635	8380
690.686	8364
690.738	8416
690.789	8374
690.841	8348
690.892	8358
690.944	8356
690.996	8332
691.047	8268
691.099	8380
691.15	8316
691.202	8372
691.253	8324
691.305	8310
691.356	8408
691.408	8296
691.459	8344
691.511	8324
691.563	8256
691.614	8362
691.666	8424
691.717	8292
691.769	8374
691.82	8334
691.872	8298
691.923	8380
691.975	8150
692.026	8252
692.078	8350
692.13	8216
692.181	8240
692.233	8254
692.284	8222
692.336	8284
692.387	8208
692.439	8242
692.49	8162
692.542	8196
692.593	8178
692.645	8252
692.697	8266
692.748	8222
692.8	8186
692.851	8276
692.903	8260
692.954	8208
693.006	8160
693.057	8194
693.109	8198
693.16	8174
693.212	8102
693.263	8218
693.315	8118
693.366	8166
693.418	8246
693.47	8156
693.521	8156
693.573	8124
693.624	8162
693.676	8096
693.727	8112
693.779	8076
693.83	8166
693.882	8116
693.933	8112
693.985	8120
694.036	8166
694.088	8116
694.139	8160
694.191	8142
694.242	8110
694.294	8046
694.345	8074
694.397	8076
694.448	8154
694.5	8026
694.552	8044
694.603	8086
694.655	8100
694.706	8104
694.758	8210
694.809	8042
694.861	8110
694.912	8178
694.964	8104
695.015	8154
695.067	8028
695.118	8048
695.17	8050
695.221	8050
695.273	8124
695.324	8148
695.376	8054
695.427	8020
695.479	8098
695.53	8052
695.582	8050
695.633	7956
695.685	8010
695.736	8062
695.788	8050
695.839	8000
695.891	8010
695.942	8026
695.994	8024
696.045	7920
696.097	8000
696.148	7954
696.2	7964
696.251	8014
696.303	8002
696.354	7950
696.406	7894
696.457	7938
696.509	7940
696.56	7952
696.612	8072
696.663	8010
696.715	7960
696.766	7978
696.818	7998
696.869	7864
696.921	7924
696.972	8006
697.024	7968
697.075	7896
697.127	7860
697.178	7890
697.23	7932
697.281	7964
697.333	7866
697.384	7822
697.436	7914
697.487	7818
697.539	7876
697.59	7842
697.642	7854
697.693	7890
697.745	7798
697.796	7828
697.847	7772
697.899	7752
697.95	7752
698.002	7738
698.053	7736
698.105	7718
698.156	7772
698.208	7730
698.259	7852
698.311	7782
698.362	7764
698.414	7846
698.465	7796
698.517	7690
698.568	7690
698.62	7730
698.671	7798
698.723	7636
698.774	7676
698.826	7630
698.877	7740
698.928	7722
698.98	7740
699.031	7646
699.083	7790
699.134	7728
699.186	7712
699.237	7666
699.289	7640
699.34	7638
699.392	7650
699.443	7658
699.495	7648
699.546	7518
699.598	7728
699.649	7618
699.7	7624
699.752	7688
699.803	7574
699.855	7690
699.906	7658
699.958	7600
700.009	7656
700.061	7554
700.112	7454
700.164	7580
700.215	7596
700.266	7628
700.318	7584
700.369	7656
700.421	7636
700.472	7582
700.524	7618
700.575	7616
700.627	7672
700.678	7572
700.73	7586
700.781	7618
700.832	7606
700.884	7508
700.935	7630
700.987	7516
701.038	7608
701.09	7650
701.141	7606
701.193	7510
701.244	7600
701.295	7552
701.347	7604
701.398	7512
701.45	7640
701.501	7620
701.553	7606
701.604	7516
701.656	7520
701.707	7612
701.758	7552
701.81	7562
701.861	7576
701.913	7602
701.964	7508
702.016	7552
702.067	7696
702.119	7560
702.17	7642
702.221	7532
702.273	7610
702.324	7624
702.376	7600
702.427	7640
702.479	7538
702.53	7632
702.581	7674
702.633	7634
702.684	7588
702.736	7646
702.787	7624
702.839	7548
702.89	7620
702.941	7618
702.993	7544
703.044	7618
703.096	7648
703.147	7612
703.199	7570
703.25	7634
703.301	7560
703.353	7628
703.404	7620
703.456	7652
703.507	7482
703.558	7594
703.61	7650
703.661	7516
703.713	7604
703.764	7532
703.816	7588
703.867	7642
703.918	7428
703.97	7602
704.021	7552
704.073	7562
704.124	7582
704.175	7494
704.227	7524
704.278	7502
704.33	7540
704.381	7480
704.432	7474
704.484	7514
704.535	7518
704.587	7478
704.638	7446
704.69	7462
704.741	7474
704.792	7494
704.844	7448
704.895	7448
704.947	7416
704.998	7458
705.049	7492
705.101	7504
705.152	7396
705.204	7486
705.255	7378
705.306	7424
705.358	7388
705.409	7376
705.461	7390
705.512	7358
705.563	7426
705.615	7428
705.666	7290
705.718	7360
705.769	7394
705.82	7336
705.872	7382
705.923	7310
705.974	7292
706.026	7396
706.077	7324
706.129	7326
706.18	7362
706.231	7332
706.283	7286
706.334	7242
706.386	7258
706.437	7298
706.488	7308
706.54	7218
706.591	7272
706.643	7296
706.694	7214
706.745	7206
706.797	7266
706.848	7282
706.899	7282
706.951	7162
707.002	7244
707.054	7264
707.105	7244
707.156	7188
707.208	7264
707.259	7232
707.31	7190
707.362	7182
707.413	7124
707.465	7088
707.516	7124
707.567	7080
707.619	7104
707.67	7096
707.721	7090
707.773	7050
707.824	7014
707.876	7118
707.927	7178
707.978	7010
708.03	7180
708.081	6972
708.132	7050
708.184	7078
708.235	7004
708.287	7088
708.338	7082
708.389	7038
708.441	7106
708.492	7080
708.543	7068
708.595	7070
708.646	7010
708.697	7042
708.749	7046
708.8	7022
708.852	7070
708.903	7052
708.954	7134
709.006	6938
709.057	7046
709.108	7060
709.16	7100
709.211	6970
709.262	7016
709.314	7070
709.365	6998
709.416	7028
709.468	6972
709.519	7056
709.57	7010
709.622	7004
709.673	7016
709.725	6944
709.776	7028
709.827	7002
709.879	7004
709.93	7032
709.981	7032
710.033	7014
710.084	6960
710.135	7028
710.187	6894
710.238	6984
710.289	6898
710.341	7008
710.392	6898
710.443	7016
710.495	6990
710.546	6918
710.597	6990
710.649	6958
710.7	7054
710.751	6932
710.803	6884
710.854	6854
710.905	6952
710.957	6904
711.008	6862
711.059	7008
711.111	6878
711.162	6912
711.213	6844
711.265	6845.21
711.316	7040.6
711.367	6870.22
711.419	6898.23
711.47	6869.69
711.521	6861.55
711.573	6851.58
711.624	6871.91
711.675	6874.58
711.727	6834.63
711.778	6804.53
711.829	6818.94
711.881	6868.58
711.932	6818.96
711.983	6809.94
712.035	6835.88
712.086	6810.85
712.137	6820.27
712.189	6831.74
712.24	6855.22
712.291	6875.68
712.343	6782.54
712.394	6815.33
712.445	6827.14
712.496	6789.74
712.548	6767.86
712.599	6783.87
712.65	6795.03
712.702	6761.01
712.753	6797.15
712.804	6779.44
712.856	6754.88
712.907	6709.13
712.958	6678.47
713.01	6718.84
713.061	6762.14
713.112	6737.37
713.164	6686.13
713.215	6710.22
713.266	6699.7
713.317	6693.69
713.369	6598.3
713.42	6683.31
713.471	6663.58
713.523	6651.54
713.574	6608.98
713.625	6695.93
713.677	6672.27
713.728	6625.47
713.779	6653.91
713.831	6653.15
713.882	6602.53
713.933	6586.29
713.984	6587.39
714.036	6590.42
714.087	6535.94
714.138	6582.5
714.19	6582.04
714.241	6553.71
714.292	6581.99
714.343	6513.58
714.395	6489.1
714.446	6494.19
714.497	6520.06
714.549	6550.77
714.6	6548.17
714.651	6507.96
714.703	6473.13
714.754	6484.04
714.805	6514.24
714.856	6462.73
714.908	6429.06
714.959	6478.23
715.01	6463.45
715.062	6461.73
715.113	6481.19
715.164	6458.82
715.215	6432.6
715.267	6422
715.318	6399.08
715.369	6403.1
715.421	6441.56
715.472	6430.66
715.523	6421.74
715.574	6423.29
715.626	6401.05
715.677	6440.43
715.728	6422.49
715.779	6354.37
715.831	6373.46
715.882	6360.98
715.933	6398.86
715.985	6377.44
716.036	6339.33
716.087	6324.55
716.138	6291.16
716.19	6345.42
716.241	6423.98
716.292	6391.6
716.343	6415.53
716.395	6342.57
716.433	6326
716.485	6356
716.536	6298
716.588	6298
716.639	6330
716.691	6386
716.742	6260
716.794	6216
716.845	6280
716.897	6368
716.948	6230
717	6344
717.052	6236
717.103	6306
717.155	6240
717.206	6278
717.258	6328
717.309	6286
717.361	6236
717.412	6250
717.464	6172
717.515	6198
717.567	6130
717.618	6228
717.67	6228
717.721	6186
717.773	6206
717.824	6170
717.876	6192
717.927	6134
717.979	6130
718.03	6232
718.082	6272
718.133	6162
718.185	6170
718.237	6126
718.288	6180
718.34	6104
718.391	6132
718.443	6158
718.494	6142
718.546	6196
718.597	6148
718.649	6158
718.7	6166
718.752	6136
718.803	6110
718.855	6188
718.906	6106
718.958	6130
719.009	6102
719.061	6088
719.112	6068
719.164	6094
719.215	6046
719.267	6036
719.318	6042
719.37	6016
719.421	6028
719.473	6058
719.524	6094
719.576	6018
719.627	6046
719.679	5978
719.73	6020
719.782	5962
719.833	5958
719.885	6012
719.936	5980
719.988	5970
720.039	5982
720.091	5926
720.142	6022
720.194	5882
720.245	5918
720.297	5988
720.348	5890
720.4	5908
720.451	5926
720.503	5908
720.554	5948
720.606	5976
720.657	5814
720.709	5918
720.76	5936
720.812	5864
720.863	5784
720.915	5906
720.966	5862
721.018	5804
721.069	5838
721.121	5826
721.172	5874
721.224	5754
721.275	5772
721.327	5720
721.378	5840
721.43	5758
721.481	5770
721.532	5784
721.584	5746
721.635	5780
721.687	5754
721.738	5754
721.79	5704
721.841	5694
721.893	5808
721.944	5746
721.996	5694
722.047	5718
722.099	5740
722.15	5624
722.202	5756
722.253	5710
722.305	5664
722.356	5634
722.408	5698
722.459	5698
722.511	5604
722.562	5652
722.614	5628
722.665	5634
722.716	5628
722.768	5662
722.819	5562
722.871	5580
722.922	5606
722.974	5634
723.025	5598
723.077	5598
723.128	5562
723.18	5596
723.231	5682
723.283	5614
723.334	5608
723.386	5632
723.437	5534
723.488	5566
723.54	5580
723.591	5508
723.643	5614
723.694	5596
723.746	5532
723.797	5474
723.849	5492
723.9	5520
723.952	5538
724.003	5548
724.055	5476
724.106	5456
724.157	5342
724.209	5552
724.26	5540
724.312	5448
724.363	5494
724.415	5436
724.466	5458
724.518	5436
724.569	5442
724.621	5376
724.672	5438
724.723	5444
724.775	5520
724.826	5442
724.878	5386
724.929	5486
724.981	5382
725.032	5434
725.084	5450
725.135	5346
725.187	5404
725.238	5376
725.289	5420
725.341	5410
725.392	5436
725.444	5344
725.495	5328
725.547	5356
725.598	5434
725.65	5320
725.701	5290
725.752	5394
725.804	5350
725.855	5350
725.907	5394
725.958	5352
726.01	5304
726.061	5296
726.112	5350
726.164	5334
726.215	5290
726.267	5388
726.318	5252
726.37	5290
726.421	5326
726.473	5170
726.524	5238
726.575	5296
726.627	5206
726.678	5242
726.73	5306
726.781	5256
726.833	5222
726.884	5250
726.935	5216
726.987	5202
727.038	5230
727.09	5146
727.141	5198
727.193	5250
727.244	5172
727.295	5198
727.347	5194
727.398	5186
727.45	5054
727.501	5158
727.552	5236
727.604	5170
727.655	5188
727.707	5162
727.758	5126
727.81	5158
727.861	5116
727.912	5134
727.964	5090
728.015	5122
728.067	5042
728.118	5078
728.17	5114
728.221	5136
728.272	5028
728.324	5096
728.375	5046
728.427	4984
728.478	5012
728.529	5032
728.581	5046
728.632	5112
728.684	5080
728.735	4980
728.786	4978
728.838	4958
728.889	4976
728.941	4940
728.992	4902
729.044	4948
729.095	5000
729.146	4942
729.198	4910
729.249	4892
729.301	4898
729.352	4882
729.403	4918
729.455	4882
729.506	4938
729.558	4900
729.609	4852
729.66	4864
729.712	4842
729.763	4832
729.815	4796
729.866	4860
729.917	4880
729.969	4888
730.02	4902
730.072	4744
730.123	4818
730.174	4782
730.226	4832
730.277	4724
730.329	4742
730.38	4802
730.431	4786
730.483	4690
730.534	4754
730.586	4742
730.637	4728
730.688	4742
730.74	4684
730.791	4698
730.842	4812
730.894	4672
730.945	4708
730.997	4662
731.048	4780
731.099	4706
731.151	4710
731.202	4722
731.254	4734
731.305	4692
731.356	4720
731.408	4698
731.459	4686
731.51	4708
731.562	4714
731.613	4674
731.665	4724
731.716	4584
731.767	4698
731.819	4644
731.87	4678
731.922	4632
731.973	4586
732.024	4646
732.076	4630
732.127	4696
732.178	4666
732.23	4630
732.281	4562
732.333	4632
732.384	4622
732.435	4686
732.487	4606
732.538	4632
732.589	4634
732.641	4558
732.692	4542
732.744	4626
732.795	4548
732.846	4594
732.898	4582
732.949	4556
733	4526
733.052	4576
733.103	4614
733.154	4548
733.206	4590
733.257	4514
733.309	4570
733.36	4574
733.411	4578
733.463	4622
733.514	4548
733.565	4576
733.617	4542
733.668	4592
733.719	4646
733.771	4506
733.822	4564
733.873	4574
733.925	4558
733.976	4554
734.028	4528
734.079	4490
734.13	4468
734.182	4534
734.233	4480
734.284	4466
734.336	4498
734.387	4530
734.438	4462
734.49	4438
734.541	4528
734.592	4514
734.644	4618
734.695	4448
734.747	4472
734.798	4550
734.849	4450
734.901	4504
734.952	4530
735.003	4520
735.055	4502
735.106	4472
735.157	4468
735.209	4448
735.26	4478
735.311	4502
735.363	4486
735.414	4448
735.465	4446
735.517	4524
735.568	4492
735.619	4490
735.671	4462
735.722	4490
735.773	4464
735.825	4454
735.876	4436
735.927	4462
735.979	4486
736.03	4430
736.081	4458
736.133	4454
736.184	4502
736.235	4422
736.287	4442
736.338	4480
736.389	4514
736.441	4488
736.492	4478
736.543	4438
736.595	4450
736.646	4502
736.697	4488
736.749	4498
736.8	4482
736.851	4476
736.903	4560
736.954	4412
737.005	4432
737.057	4514
737.108	4482
737.159	4432
737.211	4514
737.262	4482
737.313	4510
737.365	4506
737.416	4500
737.467	4454
737.518	4568
737.57	4520
737.621	4490
737.672	4516
737.724	4494
737.775	4510
737.826	4504
737.878	4520
737.929	4434
737.98	4520
738.032	4506
738.083	4418
738.134	4468
738.186	4368
738.237	4500
738.288	4426
738.339	4428
738.391	4456
738.442	4400
738.493	4446
738.545	4378
738.596	4482
738.647	4396
738.699	4450
738.75	4452
738.801	4480
738.853	4438
738.904	4444
738.955	4444
739.006	4442
739.058	4440
739.109	4390
739.16	4430
739.212	4404
739.263	4380
739.314	4366
739.366	4346
739.417	4372
739.468	4426
739.519	4322
739.571	4328
739.622	4348
739.673	4338
739.725	4412
739.776	4364
739.827	4336
739.878	4342
739.93	4252
739.981	4326
740.032	4366
740.084	4314
740.135	4300
740.186	4222
740.237	4286
740.289	4286
740.34	4314
740.391	4250
740.443	4218
740.494	4254
740.545	4262
740.596	4276
740.648	4262
740.699	4218
740.75	4202
740.802	4156
740.853	4162
740.904	4184
740.956	4192
741.007	4188
741.058	4204
741.109	4168
741.161	4168
741.212	4198
741.263	4188
741.314	4208
741.366	4178
741.417	4134
741.468	4158
741.52	4094
741.571	4162
741.622	4172
741.673	4122
741.725	4084
741.776	4148
741.827	4104
741.878	4150
741.93	4124
741.981	4148
742.032	4080
742.083	4046
742.135	4054
742.186	4096
742.237	4096
742.289	4096
742.34	4146
742.391	4032
742.442	4062
742.494	4098
742.545	4076
742.596	4058
742.647	4028
742.699	3976
742.75	4076
742.801	4042
742.852	4034
742.904	4080
742.955	4018
743.006	4036
743.057	4032
743.109	3962
743.16	3980
743.211	4052
743.263	3946
743.314	4014
743.365	4020
743.416	3964
743.468	3926
743.519	3902
743.57	3972
743.621	3984
743.672	3946
743.724	3972
743.775	3926
743.826	3946
743.878	3926
743.929	3918
743.98	3898
744.031	3904
744.083	3970
744.134	3976
744.185	3888
744.236	3908
744.287	3910
744.339	3908
744.39	3860
744.441	3946
744.492	3858
744.544	3968
744.595	3862
744.646	3820
744.697	3914
744.749	3912
744.8	3822
744.851	3930
744.902	3834
744.954	3888
745.005	3896
745.056	3862
745.107	3804
745.159	3778
745.21	3832
745.261	3862
745.312	3822
745.363	3828
745.415	3782
745.466	3764
745.517	3836
745.568	3820
745.62	3822
745.671	3786
745.722	3892
745.773	3824
745.824	3852
745.876	3856
745.927	3804
745.978	3802
746.029	3786
746.081	3740
746.132	3782
746.183	3814
746.234	3820
746.285	3804
746.337	3804
746.388	3760
746.439	3782
746.49	3800
746.542	3738
746.593	3734
746.644	3788
746.695	3780
746.746	3760
746.798	3774
746.849	3722
746.9	3760
746.951	3724
747.003	3776
747.054	3792
747.105	3762
747.156	3592
747.207	3730
747.259	3722
747.31	3664
747.361	3670
747.412	3688
747.463	3628
747.515	3728
747.566	3682
747.617	3774
747.668	3666
747.719	3650
747.771	3698
747.822	3726
747.873	3720
747.924	3660
747.975	3668
748.027	3666
748.078	3672
748.129	3604
748.18	3694
748.231	3636
748.283	3664
748.334	3652
748.385	3626
748.436	3662
748.487	3618
748.539	3642
748.59	3616
748.641	3688
748.692	3628
748.743	3672
748.795	3632
748.846	3552
748.897	3694
748.948	3584
748.999	3584
749.05	3626
749.102	3532
749.153	3626
749.204	3636
749.255	3550
749.306	3578
749.358	3570
749.409	3650
749.46	3598
749.511	3574
749.562	3600
749.614	3558
749.665	3598
749.716	3540
749.767	3598
749.818	3538
749.869	3592
749.921	3512
749.972	3560
750.023	3510
750.074	3506
750.125	3588
750.177	3544
750.228	3602
750.279	3584
750.33	3492
750.381	3526
750.432	3462
750.484	3542
750.535	3496
750.586	3494
750.637	3514
750.688	3434
750.739	3514
750.791	3506
750.842	3486
750.893	3534
750.944	3500
750.995	3464
751.046	3514
751.098	3488
751.149	3462
751.2	3456
751.251	3526
751.302	3474
751.353	3444
751.404	3454
751.456	3506
751.507	3446
751.558	3378
751.609	3354
751.66	3452
751.711	3402
751.763	3440
751.814	3392
751.865	3482
751.916	3436
751.967	3394
752.018	3432
752.07	3410
752.121	3460
752.172	3458
752.223	3398
752.274	3366
752.325	3392
752.376	3428
752.428	3356
752.479	3392
752.53	3386
752.581	3358
752.632	3320
752.683	3376
752.734	3326
752.786	3358
752.837	3350
752.888	3362
752.939	3388
752.99	3358
753.041	3354
753.092	3284
753.144	3348
753.195	3342
753.246	3340
753.297	3312
753.348	3302
753.399	3298
753.45	3312
753.502	3306
753.553	3286
753.604	3296
753.655	3280
753.706	3256
753.757	3280
753.808	3292
753.859	3232
753.911	3322
753.962	3252
754.013	3290
754.064	3230
754.115	3242
754.166	3248
754.217	3240
754.269	3254
754.32	3256
754.371	3258
754.422	3276
754.473	3310
754.524	3218
754.575	3218
754.626	3274
754.678	3250
754.729	3188
754.78	3272
754.831	3196
754.882	3214
754.933	3254
754.984	3182
755.035	3178
755.086	3186
755.138	3208
755.189	3162
755.24	3200
755.291	3166
755.342	3192
755.393	3194
755.444	3190
755.495	3168
755.547	3152
755.598	3154
755.649	3198
755.7	3174
755.751	3126
755.802	3170
755.853	3170
755.904	3138
755.955	3192
756.006	3060
756.058	3126
756.109	3110
756.16	3102
756.211	3134
756.262	3148
756.313	3108
756.364	3156
756.415	3134
756.466	3034
756.518	3126
756.569	3114
756.62	3144
756.671	3118
756.722	3102
756.773	3126
756.824	3110
756.875	3096
756.926	3068
756.977	3064
757.029	3070
757.08	3086
757.131	3076
757.182	3022
757.233	3078
757.284	3020
757.335	3062
757.386	3070
757.437	3036
757.488	3018
757.539	2964
757.59	3044
757.642	3074
757.693	3018
757.744	3004
757.795	2990
757.846	3046
757.897	2946
757.948	3004
757.999	3050
758.05	2974
758.101	3030
758.152	2978
758.203	2982
758.255	2980
758.306	3000
758.357	3016
758.408	2970
758.459	2990
758.51	3024.06
758.561	2992.28
758.612	3027.11
758.663	2958.62
758.714	2957.76
758.765	2957.59
758.816	2973.47
758.867	2965.15
758.919	2984.16
758.97	2992.29
759.021	2972.04
759.072	2985.78
759.123	2920.17
759.174	2958.17
759.225	2919.4
759.276	2990.44
759.327	2916.14
759.378	2980.03
759.429	2903.45
759.48	2929.57
759.531	2977.7
759.582	2954.64
759.633	2885.4
759.685	2897.53
759.736	2894.2
759.787	2895.84
759.838	2879.2
759.889	2904.63
759.94	2920.06
759.991	2891.18
760.042	2841.18
760.093	2898.24
760.144	2860.76
760.195	2877.38
760.246	2865.42
760.297	2858.04
760.348	2871.66
760.399	2854.78
760.45	2840.81
760.501	2807.74
760.552	2818.79
760.603	2835
760.655	2823.22
760.706	2835.6
760.757	2852.55
760.808	2787.8
760.859	2793.91
760.91	2839.63
760.961	2835.38
761.012	2842.59
761.063	2802.86
761.114	2784.99
761.165	2791.04
761.216	2815.81
761.267	2765.18
761.318	2809.72
761.369	2790.09
761.42	2806.42
761.471	2802.66
761.522	2794.12
761.573	2767.76
761.624	2804.79
761.675	2788.92
761.726	2747.55
761.777	2821.23
761.828	2797.76
761.88	2789.86
761.931	2777.94
761.982	2763.84
762.033	2757.65
762.084	2772.25
762.135	2760.37
762.186	2815.11
762.237	2764.54
762.288	2714.98
762.339	2736.71
762.39	2755.83
762.441	2704.94
762.492	2717.02
762.543	2718.58
762.594	2728.84
762.645	2735.97
762.696	2715.37
762.747	2697.46
762.798	2732.08
762.849	2678.69
762.9	2706.72
762.951	2692.93
763.002	2732.28
763.053	2685.91
763.104	2689.22
763.155	2691.51
763.206	2693.92
763.257	2726.36
763.308	2711.99
763.359	2678.99
763.41	2690.4
763.461	2657.18
763.512	2677.86
763.563	2639.01
763.614	2651.55
763.665	2637.39
763.678	2630
763.729	2652
763.78	2664
763.832	2636
763.883	2644
763.934	2660
763.986	2644
764.037	2654
764.088	2622
764.139	2640
764.191	2630
764.242	2672
764.293	2650
764.345	2612
764.396	2612
764.447	2608
764.498	2614
764.55	2604
764.601	2516
764.652	2550
764.704	2574
764.755	2552
764.806	2570
764.857	2604
764.909	2528
764.96	2558
765.011	2616
765.062	2610
765.114	2500
765.165	2562
765.216	2580
765.268	2550
765.319	2568
765.37	2554
765.421	2548
765.473	2530
765.524	2594
765.575	2582
765.626	2524
765.678	2520
765.729	2584
765.78	2560
765.831	2524
765.883	2636
765.934	2514
765.985	2540
766.036	2552
766.088	2514
766.139	2534
766.19	2538
766.242	2488
766.293	2522
766.344	2452
766.395	2524
766.447	2468
766.498	2466
766.549	2512
766.6	2484
766.652	2482
766.703	2526
766.754	2504
766.805	2456
766.857	2454
766.908	2484
766.959	2406
767.01	2456
767.062	2416
767.113	2470
767.164	2454
767.215	2480
767.267	2440
767.318	2388
767.369	2466
767.42	2472
767.472	2446
767.523	2448
767.574	2442
767.625	2428
767.677	2424
767.728	2410
767.779	2416
767.83	2434
767.882	2396
767.933	2392
767.984	2404
768.035	2436
768.087	2368
768.138	2334
768.189	2374
768.24	2384
768.292	2406
768.343	2346
768.394	2426
768.445	2392
768.497	2348
768.548	2362
768.599	2392
768.65	2348
768.701	2340
768.753	2416
768.804	2382
768.855	2358
768.906	2320
768.958	2384
769.009	2342
769.06	2350
769.111	2318
769.163	2304
769.214	2290
769.265	2360
769.316	2322
769.367	2334
769.419	2290
769.47	2314
769.521	2282
769.572	2336
769.624	2350
769.675	2328
769.726	2302
769.777	2308
769.828	2304
769.88	2306
769.931	2296
769.982	2248
770.033	2290
770.085	2252
770.136	2230
770.187	2272
770.238	2252
770.289	2310
770.341	2268
770.392	2286
770.443	2276
770.494	2174
770.546	2250
770.597	2206
770.648	2220
770.699	2206
770.75	2214
770.802	2276
770.853	2256
770.904	2234
770.955	2218
771.006	2174
771.058	2228
771.109	2202
771.16	2254
771.211	2220
771.263	2212
771.314	2204
771.365	2184
771.416	2174
771.467	2202
771.519	2212
771.57	2178
771.621	2196
771.672	2162
771.723	2128
771.775	2200
771.826	2228
771.877	2062
771.928	2188
771.979	2176
772.031	2176
772.082	2180
772.133	2142
772.184	2186
772.235	2164
772.287	2122
772.338	2140
772.389	2128
772.44	2176
772.491	2158
772.543	2124
772.594	2120
772.645	2188
772.696	2128
772.747	2142
772.799	2082
772.85	2082
772.901	2106
772.952	2104
773.003	2072
773.055	2086
773.106	2104
773.157	2062
773.208	2066
773.259	2088
773.31	2082
773.362	2082
773.413	2060
773.464	2054
773.515	2062
773.566	2048
773.618	2086
773.669	2080
773.72	2072
773.771	2038
773.822	2080
773.873	2064
773.925	2032
773.976	2010
774.027	2054
774.078	2048
774.129	2020
774.18	2042
774.232	2060
774.283	2034
774.334	2052
774.385	2042
774.436	1984
774.488	2018
774.539	2056
774.59	2028
774.641	1994
774.692	1964
774.743	1996
774.795	2002
774.846	2012
774.897	2024
774.948	1978
774.999	1984
775.05	2004
775.102	1974
775.153	2006
775.204	2008
775.255	1988
775.306	1948
775.357	1964
775.409	1998
775.46	1978
775.511	1988
775.562	1968
775.613	1960
775.664	1992
775.716	1912
775.767	1912
775.818	1926
775.869	1966
775.92	1928
775.971	1956
776.023	1954
776.074	1926
776.125	1948
776.176	1950
776.227	1916
776.278	1948
776.329	1940
776.381	1864
776.432	1864
776.483	1922
776.534	1906
776.585	1934
776.636	1904
776.688	1870
776.739	1902
776.79	1884
776.841	1872
776.892	1914
776.943	1950
776.994	1900
777.046	1884
777.097	1870
777.148	1890
777.199	1898
777.25	1886
777.301	1874
777.352	1860
777.404	1790
777.455	1886
777.506	1808
777.557	1842
777.608	1880
777.659	1874
777.71	1838
777.762	1832
777.813	1844
777.864	1864
777.915	1864
777.966	1866
778.017	1846
778.068	1838
778.12	1836
778.171	1818
778.222	1852
778.273	1828
778.324	1830
778.375	1844
778.426	1784
778.477	1840
778.529	1822
778.58	1822
778.631	1744
778.682	1816
778.733	1810
778.784	1820
778.835	1778
778.886	1744
778.938	1740
778.989	1776
779.04	1786
779.091	1756
779.142	1772
779.193	1810
779.244	1724
779.295	1782
779.347	1754
779.398	1742
779.449	1800
779.5	1766
779.551	1770
779.602	1724
779.653	1752
779.704	1760
779.755	1752
779.807	1764
779.858	1772
779.909	1746
779.96	1720
780.011	1762
780.062	1752
780.113	1758
780.164	1700
780.216	1728
780.267	1780
780.318	1728
780.369	1696
780.42	1754
780.471	1702
780.522	1712
780.573	1704
780.624	1734
780.675	1714
780.727	1702
780.778	1708
780.829	1696
780.88	1708
780.931	1700
780.982	1700
781.033	1690
781.084	1730
781.135	1686
781.187	1704
781.238	1714
781.289	1688
781.34	1670
781.391	1678
781.442	1672
781.493	1686
781.544	1644
781.595	1636
781.646	1680
781.698	1664
781.749	1646
781.8	1672
781.851	1662
781.902	1682
781.953	1632
782.004	1686
782.055	1656
782.106	1642
782.157	1602
782.208	1654
782.26	1684
782.311	1596
782.362	1672
782.413	1616
782.464	1610
782.515	1644
782.566	1646
782.617	1594
782.668	1604
782.719	1626
782.77	1548
782.821	1630
782.872	1600
782.924	1638
782.975	1594
783.026	1640
783.077	1594
783.128	1592
783.179	1602
783.23	1616
783.281	1586
783.332	1586
783.383	1544
783.434	1576
783.485	1570
783.536	1560
783.588	1574
783.639	1612
783.69	1580
783.741	1588
783.792	1586
783.843	1500
783.894	1562
783.945	1540
783.996	1520
784.047	1576
784.098	1536
784.149	1538
784.2	1558
784.252	1554
784.303	1514
784.354	1530
784.405	1514
784.456	1542
784.507	1502
784.558	1528
784.609	1568
784.66	1508
784.711	1510
784.762	1522
784.813	1530
784.864	1514
784.915	1538
784.966	1534
785.017	1546
785.068	1504
785.12	1496
785.171	1482
785.222	1502
785.273	1466
785.324	1458
785.375	1486
785.426	1466
785.477	1460
785.528	1480
785.579	1498
785.63	1476
785.681	1498
785.732	1520
785.783	1500
785.834	1476
785.885	1466
785.936	1452
785.987	1462
786.038	1486
786.089	1488
786.141	1488
786.192	1488
786.243	1442
786.294	1476
786.345	1420
786.396	1434
786.447	1418
786.498	1434
786.549	1450
786.6	1460
786.651	1406
786.702	1448
786.753	1480
786.804	1446
786.855	1388
786.906	1450
786.957	1452
787.008	1438
787.059	1396
787.11	1442
787.161	1410
787.212	1436
787.263	1408
787.314	1400
787.365	1446
787.416	1390
787.467	1400
787.518	1402
787.57	1404
787.621	1390
787.672	1412
787.723	1398
787.774	1416
787.825	1384
787.876	1420
787.927	1382
787.978	1386
788.029	1350
788.08	1362
788.131	1368
788.182	1344
788.233	1392
788.284	1360
788.335	1340
788.386	1370
788.437	1372
788.488	1402
788.539	1356
788.59	1348
788.641	1358
788.692	1350
788.743	1354
788.794	1350
788.845	1372
788.896	1324
788.947	1352
788.998	1344
789.049	1362
789.1	1302
789.151	1342
789.202	1338
789.253	1326
789.304	1340
789.355	1320
789.406	1344
789.457	1310
789.508	1330
789.559	1300
789.61	1350
789.661	1318
789.712	1292
789.763	1352
789.814	1318
789.865	1292
789.916	1302
789.967	1322
790.018	1312
790.069	1288
790.12	1266
790.171	1312
790.222	1294
790.273	1306
790.324	1292
790.375	1270
790.426	1302
790.477	1332
790.528	1264
790.579	1326
790.63	1294
790.681	1234
790.732	1282
790.783	1298
790.834	1268
790.885	1284
790.936	1264
790.987	1308
791.038	1238
791.089	1262
791.14	1284
791.191	1308
791.242	1296
791.293	1262
791.344	1256
791.395	1238
791.446	1290
791.497	1238
791.548	1272
791.599	1238
791.65	1252
791.701	1220
791.752	1242
791.803	1240
791.854	1230
791.905	1244
791.956	1210
792.007	1238
792.058	1236
792.109	1240
792.16	1236
792.211	1216
792.262	1202
792.313	1248
792.363	1202
792.414	1220
792.465	1222
792.516	1206
792.567	1208
792.618	1226
792.669	1222
792.72	1240
792.771	1194
792.822	1220
792.873	1212
792.924	1200
792.975	1222
793.026	1190
793.077	1168
793.128	1196
793.179	1218
793.23	1224
793.281	1190
793.332	1214
793.383	1172
793.434	1190
793.485	1178
793.536	1166
793.587	1188
793.638	1172
793.689	1196
793.74	1186
793.79	1186
793.841	1194
793.892	1194
793.943	1180
793.994	1184
794.045	1226
794.096	1196
794.147	1162
794.198	1148
794.249	1130
794.3	1178
794.351	1176
794.402	1172
794.453	1154
794.504	1140
794.555	1132
794.606	1132
794.657	1152
794.708	1146
794.758	1124
794.809	1124
794.86	1142
794.911	1126
794.962	1118
795.013	1106
795.064	1112
795.115	1132
795.166	1130
795.217	1102
795.268	1136
795.319	1120
795.37	1128
795.421	1122
795.472	1092
795.523	1118
795.573	1106
795.624	1122
795.675	1106
795.726	1112
795.777	1118
795.828	1100
795.879	1088
795.93	1080
795.981	1110
796.032	1088
796.083	1108
796.134	1058
796.185	1100
796.236	1078
796.286	1060
796.337	1112
796.388	1078
796.439	1066
796.49	1078
796.541	1090
796.592	1062
796.643	1066
796.694	1090
796.745	1076
796.796	1100
796.847	1068
796.897	1116
796.948	1082
796.999	1086
797.05	1110
797.101	1066
797.152	1080
797.203	1074
797.254	1108
797.305	1042
797.356	1070
797.407	1078
797.458	1060
797.508	1062
797.559	1074
797.61	1058
797.661	1050
797.712	1066
797.763	1034
797.814	1048
797.865	1020
797.916	1036
797.967	1076
798.018	1032
798.068	1048
798.119	1050
798.17	1058
798.221	1030
798.272	1026
798.323	1040
798.374	1012
798.425	1034
798.476	1044
798.526	1034
798.577	1008
798.628	976
798.679	1018
798.73	1000
798.781	1048
798.832	1004
798.883	1024
798.934	988
798.984	1038
799.035	996
799.086	998
799.137	1004
799.188	1038
799.239	998
799.29	1008
799.341	992
799.392	1006
799.443	1004
799.493	994
799.544	1010
799.595	972
799.646	956
799.697	1008
799.748	978
799.799	1000
799.85	994
799.9	970
799.951	954
800.002	986
800.053	974
800.104	998
800.155	962
800.206	966
800.257	966
800.307	968
800.358	970
800.409	938
800.46	948
800.511	944
800.562	966
800.613	974
800.664	926
800.714	974
800.765	962
800.816	964
800.867	932
800.918	966
800.969	946
801.02	970
801.07	946
801.121	952
801.172	948
801.223	934
801.274	922
801.325	934
801.376	908
801.427	946
801.477	928
801.528	918
801.579	922
801.63	944
801.681	934
801.732	936
801.783	906
801.833	940
801.884	904
801.935	912
801.986	918
802.037	928
802.088	920
802.139	890
802.189	894
802.24	930
802.291	890
802.342	938
802.393	912
802.444	880
802.495	912
802.545	908
802.596	890
802.647	912
802.698	902
802.749	898
802.8	880
802.85	898
802.901	874
802.952	910
803.003	890
803.054	898
803.105	918
803.155	916
803.206	900
803.257	910
803.308	888
803.359	886
803.41	874
803.46	892
803.511	888
803.562	896
803.613	878
803.664	918
803.715	892
803.765	868
803.816	866
803.867	888
803.918	824
803.969	892
804.02	886
804.07	862
804.121	852
804.172	860
804.223	854
804.274	870
804.325	874
804.375	860
804.426	872
804.477	870
804.528	874
804.579	816
804.63	884
804.68	840
804.731	838
804.782	872
804.833	864
804.884	850
804.934	836
804.985	836
805.036	850
805.087	822
805.138	824
805.188	828
805.239	856
805.29	816
805.341	854
805.392	822
805.443	830
805.493	802.114
805.544	818.243
805.595	847.66
805.646	854.768
805.697	813.199
805.747	805.69
805.798	816.099
805.849	828.061
805.9	808.136
805.951	807.857
806.001	852.25
806.052	836.784
806.103	822.775
806.154	810.067
806.205	816.223
806.255	831.584
806.306	815.565
806.357	787.453
806.408	820.831
806.459	824.685
806.509	820.836
806.56	802.971
806.611	817.853
806.662	820.766
806.713	812.171
806.763	791.284
806.814	799.737
806.865	802.733
806.916	793.138
806.967	791.839
807.017	805.934
807.068	821.935
807.119	798.16
807.17	792.777
807.22	786.227
807.271	804.311
807.322	805.434
807.373	790.447
807.424	791.245
807.474	791.783
807.525	794.422
807.576	797.998
807.627	799.55
807.678	798.056
807.728	784.376
807.779	803.75
807.83	773.637
807.881	773.325
807.931	778.462
807.982	783.938
808.033	796.355
808.084	783.375
808.135	785.294
808.185	765.438
808.236	783.894
808.287	776.033
808.338	772.021
808.388	754.765
808.439	763.512
808.49	789.373
808.541	761.337
808.591	776.753
808.642	770.446
808.693	785.091
808.744	764.103
808.795	759.01
808.845	747.576
808.896	734.449
808.947	754.32
808.998	775.854
809.048	740.178
809.099	771.657
809.15	760.071
809.201	730.642
809.251	765.442
809.302	756.578
809.353	751.623
809.404	747.175
809.454	750.907
809.505	754.579
809.556	724.716
809.607	735.927
809.658	737.04
809.708	755.59
809.759	719.708
809.81	740.324
809.861	744.207
809.911	743.716
809.962	700.327
810.013	718.91
810.064	730.756
810.114	748.051
810.165	742.887
810.216	745.559
810.267	742.676
810.317	719.118
810.368	719.176
810.419	717.105
810.469	726.851
810.52	736.611
810.571	707.639
810.622	704.02
810.627	704
810.678	696
810.729	724
810.78	706
810.831	724
810.882	732
810.933	712
810.984	696
811.035	724
811.086	702
811.137	674
811.188	712
811.239	714
811.29	734
811.341	722
811.392	710
811.443	720
811.494	696
811.545	702
811.596	674
811.648	704
811.699	702
811.75	712
811.801	714
811.852	718
811.903	670
811.954	716
812.005	678
812.056	708
812.107	660
812.158	670
812.209	668
812.26	694
812.311	680
812.362	708
812.413	674
812.464	704
812.515	698
812.566	692
812.617	658
812.668	670
812.719	664
812.77	672
812.821	664
812.872	660
812.923	642
812.974	652
813.025	680
813.076	684
813.127	672
813.178	658
813.229	684
813.28	670
813.331	660
813.382	698
813.433	658
813.484	678
813.535	656
813.586	682
813.637	670
813.688	670
813.739	676
813.79	678
813.841	658
813.892	656
813.943	688
813.994	664
814.045	666
814.096	658
814.147	640
814.198	678
814.249	664
814.3	638
814.351	656
814.402	654
814.453	652
814.504	642
814.555	664
814.606	646
814.657	640
814.708	640
814.759	650
814.81	654
814.861	626
814.912	634
814.963	640
815.014	660
815.065	626
815.116	642
815.167	658
815.217	620
815.268	640
815.319	642
815.37	630
815.421	628
815.472	616
815.523	644
815.574	620
815.625	622
815.676	622
815.727	618
815.778	620
815.829	648
815.88	598
815.931	624
815.982	624
816.033	626
816.084	628
816.135	614
816.186	602
816.237	624
816.288	620
816.339	608
816.39	626
816.441	624
816.492	616
816.543	592
816.594	600
816.645	616
816.696	608
816.747	582
816.798	608
816.849	620
816.9	608
816.951	604
817.001	600
817.052	628
817.103	608
817.154	600
817.205	630
817.256	608
817.307	586
817.358	594
817.409	590
817.46	596
817.511	594
817.562	604
817.613	620
817.664	586
817.715	580
817.766	582
817.817	586
817.868	574
817.919	580
817.97	580
818.021	600
818.071	570
818.122	586
818.173	594
818.224	596
818.275	590
818.326	596
818.377	578
818.428	612
818.479	572
818.53	592
818.581	572
818.632	584
818.683	586
818.734	560
818.785	594
818.836	536
818.887	576
818.938	596
818.988	576
819.039	556
819.09	602
819.141	568
819.192	582
819.243	542
819.294	564
819.345	562
819.396	556
819.447	572
819.498	580
819.549	586
819.6	560
819.651	576
819.702	560
819.753	566
819.803	542
819.854	568
819.905	560
819.956	570
820.007	592
820.058	552
820.109	544
820.16	526
820.211	526
820.262	534
820.313	568
820.364	542
820.415	558
820.465	550
820.516	564
820.567	524
820.618	528
820.669	556
820.72	552
820.771	562
820.822	536
820.873	550
820.924	548
820.975	548
821.026	520
821.076	530
821.127	544
821.178	564
821.229	520
821.28	498
821.331	532
821.382	550
821.433	534
821.484	544
821.535	528
821.586	544
821.637	518
821.687	528
821.738	526
821.789	530
821.84	524
821.891	520
821.942	550
821.993	512
822.044	522
822.095	534
822.146	528
822.196	506
822.247	530
822.298	528
822.349	510
822.4	530
822.451	524
822.502	512
822.553	506
822.604	522
822.655	524
822.706	512
822.756	524
822.807	510
822.858	540
822.909	510
822.96	500
823.011	506
823.062	528
823.113	512
823.164	498
823.214	496
823.265	508
823.316	514
823.367	506
823.418	498
823.469	498
823.52	484
823.571	500
823.622	510
823.672	506
823.723	508
823.774	490
823.825	478
823.876	492
823.927	482
823.978	464
824.029	510
824.08	508
824.13	510
824.181	492
824.232	484
824.283	488
824.334	500
824.385	490
824.436	498
824.487	494
824.537	494
824.588	494
824.639	492
824.69	480
824.741	470
824.792	476
824.843	482
824.893	492
824.944	506
824.995	470
825.046	486
825.097	482
825.148	502
825.199	516
825.25	494
825.3	486
825.351	502
825.402	492
825.453	458
825.504	486
825.555	472
825.606	478
825.657	440
825.707	468
825.758	472
825.809	478
825.86	474
825.911	482
825.962	472
826.013	466
826.063	466
826.114	468
826.165	494
826.216	500
826.267	464
826.318	478
826.369	456
826.419	458
826.47	476
826.521	490
826.572	478
826.623	490
826.674	472
826.725	478
826.775	468
826.826	468
826.877	462
826.928	452
826.979	452
827.03	476
827.08	462
827.131	446
827.182	464
827.233	484
827.284	448
827.335	468
827.386	466
827.436	480
827.487	454
827.538	448
827.589	462
827.64	454
827.691	456
827.741	458
827.792	442
827.843	446
827.894	466
827.945	446
827.996	456
828.046	450
828.097	482
828.148	452
828.199	440
828.25	456
828.301	452
828.351	444
828.402	430
828.453	452
828.504	456
828.555	470
828.606	438
828.656	448
828.707	462
828.758	430
828.809	440
828.86	450
828.911	462
828.961	440
829.012	448
829.063	444
829.114	438
829.165	442
829.216	448
829.266	446
829.317	434
829.368	434
829.419	412
829.47	450
829.52	458
829.571	432
829.622	442
829.673	430
829.724	438
829.774	426
829.825	408
829.876	420
829.927	420
829.978	418
830.029	440
830.079	422
830.13	438
830.181	436
830.232	404
830.283	444
830.333	410
830.384	446
830.435	410
830.486	448
830.537	432
830.587	426
830.638	408
830.689	444
830.74	428
830.791	408
830.841	406
830.892	432
830.943	406
830.994	426
831.045	410
831.095	424
831.146	412
831.197	394
831.248	404
831.299	422
831.349	424
831.4	398
831.451	438
831.502	408
831.553	404
831.603	426
831.654	420
831.705	422
831.756	410
831.807	438
831.857	420
831.908	396
831.959	408
832.01	402
832.061	416
832.111	422
832.162	394
832.213	396
832.264	404
832.315	414
832.365	400
832.416	442
832.467	412
832.518	424
832.568	420
832.619	406
832.67	416
832.721	386
832.772	412
832.822	390
832.873	396
832.924	390
832.975	404
833.025	408
833.076	394
833.127	414
833.178	404
833.229	422
833.279	386
833.33	412
833.381	406
833.432	376
833.482	400
833.533	404
833.584	410
833.635	394
833.685	386
833.736	366
833.787	382
833.838	392
833.889	382
833.939	400
833.99	380
834.041	400
834.092	406
834.142	394
834.193	382
834.244	404
834.295	392
834.345	400
834.396	408
834.447	374
834.498	400
834.548	396
834.599	384
834.65	360
834.701	396
834.751	380
834.802	368
834.853	386
834.904	368
834.954	382
835.005	386
835.056	378
835.107	382
835.157	386
835.208	374
835.259	380
835.31	370
835.36	362
835.411	382
835.462	360
835.513	374
835.563	374
835.614	402
835.665	390
835.716	358
835.766	360
835.817	376
835.868	374
835.919	372
835.969	380
836.02	380
836.071	346
836.122	362
836.172	372
836.223	368
836.274	370
836.325	378
836.375	378
836.426	356
836.477	354
836.528	370
836.578	354
836.629	368
836.68	368
836.73	352
836.781	366
836.832	356
836.883	368
836.933	372
836.984	382
837.035	342
837.086	362
837.136	378
837.187	360
837.238	374
837.288	352
837.339	370
837.39	364
837.441	364
837.491	368
837.542	372
837.593	390
837.643	368
837.694	362
837.745	370
837.796	346
837.846	364
837.897	352
837.948	372
837.999	380
838.049	360
838.1	332
838.151	352
838.201	366
838.252	360
838.303	352
838.354	352
838.404	346
838.455	340
838.506	350
838.556	358
838.607	352
838.658	360
838.708	330
838.759	366
838.81	356
838.861	354
838.911	354
838.962	360
839.013	356
839.063	334
839.114	362
839.165	334
839.216	336
839.266	376
839.317	360
839.368	324
839.418	352
839.469	332
839.52	338
839.57	334
839.621	358
839.672	338
839.722	334
839.773	340
839.824	354
839.875	338
839.925	344
839.976	330
840.027	330
840.077	346
840.128	346
840.179	316
840.229	356
840.28	348
840.331	340
840.381	340
840.432	322
840.483	340
840.534	326
840.584	332
840.635	348
840.686	330
840.736	326
840.787	330
840.838	330
840.888	356
840.939	330
840.99	330
841.04	320
841.091	324
841.142	324
841.192	318
841.243	338
841.294	332
841.344	322
841.395	330
841.446	324
841.496	320
841.547	332
841.598	326
841.648	318
841.699	324
841.75	338
841.8	318
841.851	322
841.902	290
841.952	324
842.003	324
842.054	332
842.104	314
842.155	336
842.206	322
842.256	314
842.307	328
842.358	330
842.408	334
842.459	316
842.51	312
842.56	318
842.611	326
842.662	328
842.712	322
842.763	312
842.814	312
842.864	316
842.915	324
842.966	308
843.016	326
843.067	318
843.118	320
843.168	330
843.219	326
843.269	316
843.32	324
843.371	316
843.421	316
843.472	320
843.523	292
843.573	320
843.624	320
843.675	310
843.725	310
843.776	308
843.827	316
843.877	320
843.928	314
843.979	312
844.029	310
844.08	312
844.13	318
844.181	304
844.232	290
844.282	296
844.333	326
844.384	320
844.434	306
844.485	304
844.536	304
844.586	298
844.637	306
844.687	294
844.738	318
844.789	296
844.839	304
844.89	322
844.941	310
844.991	308
845.042	302
845.092	332
845.143	312
845.194	296
845.244	316
845.295	300
845.346	304
845.396	310
845.447	298
845.497	300
845.548	308
845.599	280
845.649	286
845.7	300
845.75	310
845.801	308
845.852	284
845.902	294
845.953	302
846.004	290
846.054	302
846.105	310
846.155	304
846.206	288
846.257	316
846.307	298
846.358	290
846.409	304
846.459	302
846.51	298
846.56	284
846.611	300
846.661	306
846.712	274
846.763	292
846.813	282
846.864	298
846.915	286
846.965	292
847.016	278
847.066	300
847.117	286
847.168	304
847.218	316
847.269	292
847.319	292
847.37	288
847.421	284
847.471	276
847.522	264
847.572	290
847.623	284
847.674	286
847.724	282
847.775	304
847.825	300
847.876	296
847.926	276
847.977	292
848.028	284
848.078	270
848.129	274
848.179	282
848.23	272
848.281	270
848.331	282
848.382	282
848.432	294
848.483	282
848.534	252
848.584	280
848.635	278
848.685	284
848.736	282
848.786	284
848.837	288
848.888	288
848.938	270
848.989	262
849.039	276
849.09	268
849.14	286
849.191	280
849.242	286
849.292	292
849.343	284
849.393	276
849.444	266
849.494	286
849.545	290
849.596	276
849.646	262
849.697	284
849.747	268
849.798	294
849.848	262
849.899	268
849.95	270
850	276
850.051	266
850.101	280
850.152	280
850.202	280
850.253	274
850.303	272
850.354	274
850.405	276
850.455	262
850.506	260
850.556	280
850.607	248
850.657	260
850.708	272
850.758	276
850.809	260
850.86	258
850.91	270
850.961	270
851.011	268
851.062	260
851.112	244
851.163	270
851.213	242
851.264	280
851.314	258
851.365	256
851.416	278
851.466	260
851.517	266
851.567	266
851.618	274
851.668	254
851.719	266
851.769	260
851.82	274
851.87	270
851.921	270
851.971	254
852.022	270
852.073	258
852.123	252
852.174	266
852.224	258
852.275	238
852.325	254.05
852.376	256.12
852.426	242.55
852.477	246.621
852.527	255.555
852.578	259.994
852.628	254.185
852.679	246.584
852.729	257.492
852.78	248.752
852.831	254.467
852.881	242.357
852.932	245.34
852.982	260.76
853.033	263.833
853.083	250.41
853.134	248.467
853.184	246.9
853.235	254.614
853.285	244.104
853.336	249.402
853.386	241.14
853.437	259.211
853.487	245.155
853.538	247.704
853.588	244.348
853.639	253.71
853.689	243.702
853.74	246.871
853.79	251.606
853.841	254.81
853.891	249.503
853.942	242.393
853.992	252.382
854.043	255.198
854.093	250.566
854.144	242.955
854.194	251
854.245	261.412
854.295	243.027
854.346	235.478
854.396	239.29
854.447	245.941
854.497	260.107
854.548	245.798
854.598	238.581
854.649	248.647
854.699	231.424
854.75	235.229
854.8	245.205
854.851	250.302
854.901	230.085
854.952	241.769
855.002	234.399
855.053	248.858
855.103	238.872
855.154	233.086
855.204	241.389
855.255	232.48
855.305	237.737
855.356	237.543
855.406	238.798
855.457	237.146
855.507	234.068
855.558	232.13
855.608	230.174
855.659	244.142
855.709	230.987
855.76	230.61
855.81	238.295
855.861	231.714
855.911	235.472
855.962	231.438
856.012	227.024
856.063	222.354
856.113	232.28
856.164	239.269
856.214	236.926
856.265	239.57
856.315	232.335
856.366	222.847
856.416	232.188
856.467	227.133
856.517	233.447
856.568	234.242
856.618	229.693
856.668	236.277
856.719	224.797
856.769	219.802
856.82	230.437
856.87	227.619
856.921	225.321
856.971	221.178
857.022	215.008
857.072	219.917
857.123	219.165
857.173	225.787
857.224	235.79
857.274	232.578
857.325	221.45
857.352	216
857.403	224
857.453	232
857.504	232
857.555	230
857.606	224
857.656	234
857.707	222
857.758	218
857.809	230
857.859	234
857.91	224
857.961	234
858.012	222
858.063	234
858.113	240
858.164	226
858.215	208
858.266	222
858.316	218
858.367	222
858.418	218
858.469	228
858.519	232
858.57	224
858.621	220
858.672	234
858.722	212
858.773	224
858.824	212
858.875	232
858.925	232
858.976	228
859.027	210
859.078	228
859.128	212
859.179	214
859.23	234
859.281	226
859.331	220
859.382	226
859.433	224
859.483	214
859.534	218
859.585	234
859.636	220
859.686	220
859.737	214
859.788	202
859.839	216
859.889	216
859.94	220
859.991	220
860.042	212
860.092	210
860.143	220
860.194	222
860.245	200
860.295	216
860.346	214
860.397	212
860.447	214
860.498	198
860.549	198
860.6	210
860.65	206
860.701	224
860.752	234
860.802	214
860.853	206
860.904	216
860.955	212
861.005	218
861.056	208
861.107	206
861.158	216
861.208	208
861.259	206
861.31	202
861.36	212
861.411	216
861.462	202
861.513	202
861.563	214
861.614	214
861.665	210
861.715	216
861.766	224
861.817	218
861.868	204
861.918	216
861.969	216
862.02	214
862.07	204
862.121	208
862.172	204
862.223	200
862.273	210
862.324	216
862.375	194
862.425	206
862.476	198
862.527	200
862.577	212
862.628	210
862.679	214
862.73	190
862.78	204
862.831	206
862.882	192
862.932	204
862.983	216
863.034	220
863.084	200
863.135	220
863.186	202
863.237	210
863.287	190
863.338	200
863.389	212
863.439	206
863.49	208
863.541	184
863.591	194
863.642	206
863.693	210
863.744	196
863.794	216
863.845	196
863.896	188
863.946	208
863.997	210
864.048	182
864.098	200
864.149	198
864.2	202
864.25	196
864.301	196
864.352	208
864.402	196
864.453	194
864.504	176
864.555	188
864.605	190
864.656	214
864.707	188
864.757	190
864.808	200
864.859	204
864.909	188
864.96	200
865.011	198
865.061	206
865.112	204
865.163	188
865.213	196
865.264	202
865.315	178
865.365	206
865.416	194
865.467	212
865.517	180
865.568	188
865.619	204
865.669	192
865.72	186
865.771	188
865.821	196
865.872	198
865.923	184
865.973	196
866.024	190
866.075	202
866.125	190
866.176	186
866.227	188
866.277	196
866.328	180
866.379	176
866.429	194
866.48	190
866.531	186
866.581	188
866.632	188
866.683	186
866.733	186
866.784	200
866.835	184
866.885	186
866.936	198
866.987	186
867.037	200
867.088	192
867.138	190
867.189	176
867.24	198
867.29	188
867.341	174
867.392	196
867.442	180
867.493	190
867.544	174
867.594	176
867.645	194
867.696	180
867.746	166
867.797	192
867.848	188
867.898	192
867.949	184
867.999	172
868.05	192
868.101	198
868.151	172
868.202	178
868.253	194
868.303	184
868.354	184
868.405	194
868.455	184
868.506	180
868.556	186
868.607	182
868.658	178
868.708	178
868.759	176
868.81	184
868.86	190
868.911	190
868.961	178
869.012	178
869.063	184
869.113	186
869.164	172
869.215	182
869.265	178
869.316	182
869.367	184
869.417	190
869.468	182
869.518	176
869.569	184
869.62	166
869.67	186
869.721	192
869.771	176
869.822	166
869.873	176
869.923	174
869.974	182
870.025	182
870.075	174
870.126	184
870.176	170
870.227	184
870.278	184
870.328	178
870.379	160
870.43	166
870.48	180
870.531	168
870.581	172
870.632	176
870.683	202
870.733	166
870.784	156
870.834	184
870.885	178
870.936	182
870.986	172
871.037	170
871.087	190
871.138	170
871.189	166
871.239	166
871.29	176
871.34	166
871.391	170
871.442	170
871.492	168
871.543	180
871.593	162
871.644	178
871.695	182
871.745	158
871.796	164
871.846	182
871.897	174
871.948	180
871.998	162
872.049	180
872.099	166
872.15	172
872.201	156
872.251	174
872.302	178
872.352	188
872.403	168
872.453	170
872.504	164
872.555	168
872.605	164
872.656	180
872.706	178
872.757	180
872.808	156
872.858	158
872.909	180
872.959	168
873.01	160
873.06	180
873.111	162
873.162	160
873.212	162
873.263	166
873.313	174
873.364	174
873.415	158
873.465	158
873.516	160
873.566	168
873.617	158
873.667	160
873.718	156
873.769	164
873.819	164
873.87	178
873.92	178
873.971	156
874.021	160
874.072	164
874.123	166
874.173	166
874.224	156
874.274	166
874.325	166
874.375	168
874.426	158
874.477	176
874.527	162
874.578	172
874.628	158
874.679	168
874.729	148
874.78	158
874.83	172
874.881	154
874.932	154
874.982	164
875.033	154
875.083	160
875.134	160
875.184	162
875.235	168
875.285	146
875.336	154
875.387	168
875.437	150
875.488	164
875.538	156
875.589	158
875.639	160
875.69	162
875.74	146
875.791	148
875.841	164
875.892	152
875.943	162
875.993	140
876.044	172
876.094	166
876.145	160
876.195	168
876.246	164
876.296	152
876.347	166
876.397	160
876.448	136
876.499	154
876.549	142
876.6	158
876.65	148
876.701	160
876.751	162
876.802	156
876.852	152
876.903	166
876.953	156
877.004	154
877.054	148
877.105	154
877.155	152
877.206	152
877.257	156
877.307	164
877.358	150
877.408	156
877.459	144
877.509	142
877.56	150
877.61	144
877.661	138
877.711	158
877.762	150
877.812	146
877.863	144
877.913	154
877.964	152
878.014	158
878.065	150
878.115	148
878.166	150
878.216	154
878.267	144
878.318	156
878.368	162
878.419	146
878.469	142
878.52	156
878.57	146
878.621	146
878.671	142
878.722	142
878.772	148
878.823	156
878.873	138
878.924	142
878.974	160
879.025	158
879.075	152
879.126	148
879.176	152
879.227	158
879.277	144
879.328	154
879.378	146
879.429	144
879.479	150
879.53	150
879.58	146
879.631	148
879.681	152
879.732	158
879.782	148
879.833	154
879.883	144
879.934	146
879.984	144
880.035	144
880.085	144
880.136	156
880.186	150
880.237	146
880.287	144
880.338	138
880.388	150
880.439	144
880.489	128
880.54	146
880.59	152
880.641	150
880.691	138
880.742	140
880.792	150
880.842	142
880.893	138
880.943	132
880.994	154
881.044	150
881.095	146
881.145	146
881.196	144
881.246	148
881.297	150
881.347	144
881.398	140
881.448	154
881.499	146
881.549	142
881.6	134
881.65	152
881.701	140
881.751	142
881.802	134
881.852	132
881.902	128
881.953	134
882.003	140
882.054	134
882.104	132
882.155	140
882.205	154
882.256	150
882.306	140
882.357	142
882.407	134
882.458	138
882.508	132
882.559	144
882.609	138
882.659	140
882.71	124
882.76	138
882.811	152
882.861	138
882.912	126
882.962	136
883.013	122
883.063	142
883.114	132
883.164	138
883.214	138
883.265	140
883.315	124
883.366	126
883.416	136
883.467	144
883.517	128
883.568	134
883.618	132
883.669	126
883.719	130
883.769	124
883.82	140
883.87	126
883.921	128
883.971	134
884.022	136
884.072	140
884.123	126
884.173	128
884.223	136
884.274	142
884.324	132
884.375	118
884.425	136
884.476	136
884.526	136
884.577	130
884.627	134
884.677	120
884.728	130
884.778	128
884.829	142
884.879	140
884.93	136
884.98	144
885.03	140
885.081	126
885.131	134
885.182	136
885.232	150
885.283	140
885.333	122
885.383	128
885.434	116
885.484	138
885.535	126
885.585	126
885.635	126
885.686	126
885.736	118
885.787	136
885.837	132
885.888	118
885.938	132
885.988	132
886.039	126
886.089	130
886.14	132
886.19	118
886.241	126
886.291	118
886.341	120
886.392	122
886.442	126
886.493	112
886.543	126
886.593	120
886.644	138
886.694	128
886.745	120
886.795	128
886.845	118
886.896	128
886.946	124
886.997	120
887.047	122
887.097	134
887.148	132
887.198	130
887.249	130
887.299	118
887.349	134
887.4	110
887.45	116
887.501	120
887.551	128
887.602	114
887.652	128
887.702	124
887.753	114
887.803	120
887.853	134
887.904	134
887.954	120
888.005	112
888.055	126
888.105	124
888.156	108
888.206	124
888.257	132
888.307	120
888.357	108
888.408	122
888.458	112
888.509	120
888.559	116
888.609	116
888.66	124
888.71	114
888.76	120
888.811	112
888.861	118
888.912	120
888.962	120
889.012	120
889.063	122
889.113	126
889.163	108
889.214	114
889.264	120
889.315	120
889.365	108
889.415	122
889.466	116
889.516	106
889.566	118
889.617	126
889.667	116
889.718	114
889.768	114
889.818	102
889.869	126
889.919	120
889.969	108
890.02	120
890.07	106
890.12	130
890.171	120
890.221	108
890.272	120
890.322	128
890.372	124
890.423	112
890.473	116
890.523	124
890.574	106
890.624	114
890.674	118
890.725	112
890.775	110
890.826	118
890.876	118
890.926	114
890.977	116
891.027	120
891.077	120
891.128	110
891.178	116
891.228	106
891.279	116
891.329	112
891.379	118
891.43	102
891.48	116
891.53	112
891.581	112
891.631	114
891.681	120
891.732	116
891.782	112
891.832	122
891.883	128
891.933	108
891.983	116
892.034	104
892.084	108
892.134	120
892.185	114
892.235	104
892.286	110
892.336	124
892.386	108
892.437	110
892.487	112
892.537	102
892.587	108
892.638	100
892.688	118
892.738	110
892.789	108
892.839	100
892.889	116
892.94	112
892.99	114
893.04	102
893.091	106
893.141	104
893.191	114
893.242	106
893.292	120
893.342	108
893.393	100
893.443	98
893.493	116
893.544	110
893.594	112
893.644	114
893.695	108
893.745	96
893.795	98
893.846	118
893.896	108
893.946	108
893.996	108
894.047	100
894.097	108
894.147	108
894.198	94
894.248	88
894.298	98
894.349	106
894.399	104
894.449	94
894.5	118
894.55	110
894.6	100
894.65	100
894.701	110
894.751	108
894.801	102
894.852	108
894.902	114
894.952	100
895.003	102
895.053	106
895.103	110
895.153	110
895.204	104
895.254	96
895.304	110
895.355	110
895.405	84
895.455	92
895.505	112
895.556	110
895.606	96
895.656	102
895.707	102
895.757	100
895.807	96
895.858	90
895.908	110
895.958	114
896.008	98
896.059	100
896.109	104
896.159	102
896.21	108
896.26	96
896.31	90
896.36	112
896.411	94
896.461	108
896.511	104
896.561	100
896.612	110
896.662	94
896.712	106
896.763	100
896.813	104
896.863	98
896.913	102
896.964	112
897.014	100
897.064	102
897.115	100
897.165	100
897.215	90
897.265	102
897.316	100
897.366	114
897.416	84
897.466	90
897.517	98
897.567	98
897.617	86
897.667	96
897.718	102
897.768	96
897.818	94
897.868	96
897.919	100
897.969	98
898.019	100
898.069	86
898.12	104
898.17	98
898.22	104
898.27	92
898.321	94
898.371	92
898.421	100
898.471	84
898.522	96
898.572	100
898.622	92
898.672	98
898.723	98
898.773	98
898.823	98
898.873	92
898.924	102
898.974	88
899.024	92
899.074	94
899.125	96
899.175	98
899.225	88
899.275	86
899.326	98
899.376	92
899.426	92
899.476	92
899.527	100
899.577	104
899.627	90
899.677	90
899.728	96
899.778	88
899.828	98
899.878	92
899.928	96
899.979	90
