#Acq. time (s)=	3
#Accumulations=	2
#Range (nm)=	520...900
#Windows=	8
#Auto scanning=	Off
#Autofocus=	Off
#AutoExposure=	Off
#Spike filter=	Off
#Delay time (s)=	0
#Binning=	1
#Readout mode=	Signal
#DeNoise=	Off
#ICS correction=	Off
#Dark correction=	Off
#Inst. Process=	Off
#Detector temperature (°C)=	-59.98
#Instrument=	LabRAM HR Evol
#Detector=	Syncerity OE
#Objective=	x50_VIS
#Grating=	600 (500nm)
#ND Filter=	25%
#Laser=	514nm_Edge
#Hole=	199.981
#Range=	Visible
#StageXY=	Marzhauser
#StageZ=	Marzhauser
#X (µm)=	-0.3
#Y (µm)=	-9993.1
#Z (µm)=	-259.4
#Full time(mm:ss)=	1:32
#Project=	
#Sample=	
#Site=	
#Title=	PL_M3_280424
#Remark=	
#Date=	06.05.2024 16:32
#Acquired=	06.05.2024 16:32:18
520.044	87
520.097	78
520.149	85
520.201	89
520.254	87
520.306	72
520.359	85
520.411	94
520.464	89
520.516	82
520.569	93
520.621	85
520.674	72
520.726	70
520.778	82
520.831	94
520.883	86
520.936	73
520.988	87
521.041	86
521.093	85
521.146	82
521.198	84
521.25	83
521.303	87
521.355	86
521.408	85
521.46	90
521.513	99
521.565	74
521.617	81
521.67	91
521.722	91
521.775	86
521.827	84
521.88	78
521.932	80
521.984	81
522.037	76
522.089	79
522.142	91
522.194	86
522.247	90
522.299	88
522.352	88
522.404	81
522.456	78
522.509	81
522.561	88
522.614	80
522.666	86
522.719	84
522.771	92
522.823	84
522.876	81
522.928	83
522.981	82
523.033	73
523.086	83
523.138	90
523.19	85
523.243	82
523.295	91
523.348	80
523.4	82
523.453	75
523.505	76
523.557	85
523.61	75
523.662	83
523.715	78
523.767	82
523.82	81
523.872	89
523.924	75
523.977	86
524.029	85
524.082	76
524.134	80
524.186	79
524.239	79
524.291	73
524.344	71
524.396	92
524.449	82
524.501	80
524.553	69
524.606	81
524.658	84
524.711	79
524.763	72
524.815	82
524.868	85
524.92	86
524.973	85
525.025	75
525.078	76
525.13	77
525.182	74
525.235	80
525.287	69
525.34	87
525.392	66
525.444	86
525.497	87
525.549	90
525.602	74
525.654	84
525.706	83
525.759	76
525.811	71
525.864	81
525.916	79
525.969	79
526.021	64
526.073	83
526.126	85
526.178	72
526.231	72
526.283	87
526.335	77
526.388	79
526.44	71
526.493	82
526.545	69
526.597	73
526.65	66
526.702	75
526.755	80
526.807	80
526.859	73
526.912	84
526.964	75
527.017	74
527.069	68
527.121	71
527.174	82
527.226	73
527.279	66
527.331	77
527.383	81
527.436	72
527.488	69
527.54	73
527.593	67
527.645	65
527.698	68
527.75	69
527.802	72
527.855	75
527.907	66
527.96	83
528.012	67
528.064	77
528.117	77
528.169	83
528.222	76
528.274	79
528.326	64
528.379	77
528.431	78
528.484	81
528.536	71
528.588	79
528.641	75
528.693	75
528.745	67
528.798	89
528.85	74
528.903	80
528.955	69
529.007	77
529.06	75
529.112	78
529.164	71
529.217	73
529.269	70
529.322	75
529.374	72
529.426	75
529.479	87
529.531	74
529.584	72
529.636	76
529.688	74
529.741	82
529.793	66
529.845	77
529.898	70
529.95	74
530.003	77
530.055	74
530.107	78
530.16	69
530.212	67
530.264	78
530.317	82
530.369	77
530.422	73
530.474	76
530.526	71
530.579	80
530.631	73
530.683	89
530.736	74
530.788	75
530.841	71
530.893	82
530.945	80
530.998	74
531.05	75
531.102	80
531.155	82
531.207	73
531.259	70
531.312	83
531.364	78
531.417	76
531.469	75
531.521	83
531.574	86
531.626	81
531.678	70
531.731	68
531.783	78
531.835	82
531.888	75
531.94	76
531.992	83
532.045	89
532.097	74
532.15	80
532.202	85
532.254	89
532.307	82
532.359	77
532.411	82
532.464	94
532.516	75
532.568	83
532.621	84
532.673	92
532.726	81
532.778	80
532.83	85
532.883	94
532.935	85
532.987	83
533.04	87
533.092	89
533.144	76
533.197	89
533.249	85
533.301	92
533.354	86
533.406	88
533.458	86
533.511	85
533.563	82
533.615	89
533.668	100
533.72	103
533.773	98
533.825	102
533.877	103
533.93	96
533.982	96
534.034	101
534.087	114
534.139	96
534.191	107
534.244	101
534.296	117
534.348	109
534.401	121
534.453	115
534.505	125
534.558	128
534.61	123
534.662	135
534.715	128
534.767	132
534.819	140
534.872	137
534.924	145
534.976	152
535.029	158
535.081	154
535.133	167
535.186	154
535.238	149
535.29	160
535.343	168
535.395	158
535.447	160
535.5	162
535.552	163
535.604	151
535.657	155
535.709	156
535.761	140
535.814	149
535.866	147
535.918	123
535.971	134
536.023	136
536.075	136
536.128	118
536.18	123
536.232	129
536.285	105
536.337	107
536.389	124
536.442	108
536.494	119
536.546	108
536.599	117
536.651	111
536.703	100
536.755	110
536.808	106
536.86	116
536.912	112
536.965	99
537.017	111
537.069	114
537.122	104
537.174	96
537.226	109
537.279	110
537.331	103
537.383	109
537.436	113
537.488	99
537.54	116
537.593	102
537.645	109
537.697	102
537.75	108
537.802	101
537.854	108
537.906	108
537.959	109
538.011	110
538.063	115
538.116	97
538.168	115
538.22	105
538.273	105
538.325	110
538.377	108
538.43	106
538.482	109
538.534	110
538.586	108
538.639	101
538.691	110
538.743	105
538.796	109
538.848	101
538.9	111
538.953	114
539.005	102
539.057	106
539.109	110
539.162	113
539.214	111
539.266	106
539.319	107
539.371	103
539.423	113
539.476	107
539.528	111
539.58	114
539.633	104
539.685	102
539.737	110
539.789	116
539.842	110
539.894	105
539.946	112
539.999	122
540.051	122
540.103	100
540.155	113
540.208	121
540.26	106
540.312	115
540.365	129
540.417	118
540.469	116
540.521	106
540.574	116
540.626	124
540.678	120
540.731	120
540.783	117
540.835	121
540.888	111
540.94	115
540.992	127
541.044	109
541.097	109
541.149	114
541.201	120
541.254	122
541.306	128
541.358	111
541.41	129
541.463	112
541.515	124
541.567	120
541.62	122
541.672	123
541.724	124
541.776	120
541.829	126
541.881	123
541.933	125
541.985	118
542.038	129
542.09	126
542.142	136
542.195	126
542.247	135
542.299	130
542.351	123
542.404	123
542.456	128
542.508	127
542.56	131
542.613	129
542.665	125
542.717	131
542.77	135
542.822	119
542.874	137
542.926	133
542.979	120
543.031	120
543.083	132
543.135	138
543.188	129
543.24	141
543.292	125
543.344	134
543.397	143
543.449	121
543.501	134
543.554	129
543.606	133
543.658	126
543.71	134
543.763	135
543.815	129
543.867	132
543.919	133
543.972	142
544.024	148
544.076	133
544.128	154
544.181	144
544.233	141
544.285	137
544.337	141
544.39	145
544.442	132
544.494	140
544.547	154
544.599	161
544.651	156
544.703	140
544.755	154
544.808	150
544.86	146
544.912	151
544.965	161
545.017	156
545.069	146
545.121	150
545.174	151
545.226	149
545.278	144
545.33	138
545.383	151
545.435	163
545.487	158
545.539	147
545.591	149
545.644	155
545.696	145
545.748	149
545.8	163
545.853	166
545.905	155
545.957	154
546.009	168
546.062	165
546.114	174
546.166	159
546.218	164
546.271	166
546.323	163
546.375	159
546.427	180
546.48	169
546.532	171
546.584	157
546.636	167
546.689	165
546.741	165
546.793	163
546.845	170
546.898	157
546.95	186
547.002	174
547.054	167
547.106	184
547.159	184
547.211	161
547.263	170
547.315	167
547.368	174
547.42	168
547.472	184
547.524	187
547.577	184
547.629	170
547.681	180
547.733	174
547.785	190
547.838	177
547.89	185
547.942	201
547.994	174
548.047	197
548.099	190
548.151	184
548.203	197
548.255	188
548.308	186
548.36	193
548.412	191
548.464	186
548.517	191
548.569	193
548.621	202
548.673	211
548.725	210
548.778	194
548.83	193
548.882	186
548.934	208
548.987	198
549.039	205
549.091	188
549.143	190
549.195	205
549.248	214
549.3	195
549.352	206
549.404	197
549.456	198
549.509	200
549.561	216
549.613	217
549.665	226
549.718	207
549.77	222
549.822	208
549.874	214
549.926	219
549.979	221
550.031	210
550.083	214
550.135	221
550.187	230
550.24	220
550.292	227
550.344	238
550.396	225
550.448	242
550.501	238
550.553	236
550.605	231
550.657	236
550.709	232
550.762	246
550.814	256
550.866	255
550.918	238
550.97	251
551.023	264
551.075	268
551.127	260
551.179	259
551.231	272
551.284	275
551.336	278
551.388	279
551.44	268
551.492	284
551.545	293
551.597	292
551.649	292
551.701	307
551.753	340
551.806	333
551.858	344
551.91	365
551.962	373
552.014	390
552.067	417
552.119	448
552.171	489
552.223	542
552.275	618
552.327	746
552.38	946
552.432	1480
552.484	3250
552.536	6964
552.588	13201
552.641	21878
552.693	32984
552.745	35779
552.797	17508
552.849	6293
552.901	2355
552.954	1347
553.006	935
553.058	740
553.11	628
553.162	539
553.215	490
553.267	428
553.319	413
553.371	402
553.423	376
553.475	359
553.528	362
553.58	367
553.632	336
553.684	337
553.736	321
553.788	332
553.841	320
553.893	319
553.945	312
553.997	313
554.049	316
554.102	305
554.154	298
554.206	288
554.258	297
554.31	307
554.362	304
554.414	300
554.467	300
554.519	297
554.571	299
554.623	307
554.675	308
554.727	299
554.78	310
554.832	318
554.884	306
554.936	302
554.988	302
555.04	295
555.093	307
555.145	305
555.197	298
555.249	298
555.301	298
555.353	299
555.406	307
555.458	304
555.51	320
555.562	322
555.614	303
555.666	318
555.719	327
555.771	319
555.823	320
555.875	320
555.927	327
555.979	345
556.031	311
556.084	324
556.136	325
556.188	322
556.24	318
556.292	323
556.344	330
556.396	330
556.449	335
556.501	334
556.553	341
556.605	348
556.657	331
556.709	353
556.762	335
556.814	343
556.866	342
556.918	364
556.97	369
557.022	353
557.074	358
557.127	359
557.179	357
557.231	357
557.283	348
557.335	361
557.387	364
557.439	370
557.492	352
557.544	372
557.596	377
557.648	385
557.7	366
557.752	381
557.804	376
557.856	394
557.909	361
557.961	378
558.013	368
558.065	383
558.117	368
558.169	368
558.221	378
558.273	386
558.326	370
558.378	383
558.43	394
558.482	382
558.534	394
558.586	391
558.638	399
558.691	397
558.743	389
558.795	411
558.847	403
558.899	396
558.951	410
559.003	405
559.055	412
559.108	402
559.16	418
559.212	401
559.264	393
559.316	407
559.368	403
559.42	412
559.472	413
559.525	404
559.577	400
559.629	411
559.681	414
559.733	419
559.785	406
559.837	426
559.889	444
559.941	426
559.994	417
560.046	424
560.098	417
560.15	437
560.202	433
560.254	442
560.306	441
560.358	443
560.41	421
560.463	438
560.515	428
560.567	430
560.619	449
560.671	464
560.723	441
560.775	438
560.827	453
560.879	456
560.932	478
560.984	459
561.036	449
561.088	481
561.14	471
561.192	472
561.244	503
561.296	458
561.348	467
561.4	486
561.453	466
561.505	465
561.557	479
561.609	486
561.661	494
561.713	497
561.765	494
561.817	502
561.869	512
561.921	500
561.974	487
562.026	500
562.078	508
562.13	507
562.182	527
562.234	540
562.286	517
562.338	532
562.39	543
562.442	531
562.494	540
562.547	550
562.599	542
562.651	556
562.703	543
562.755	557
562.807	546
562.859	559
562.911	562
562.963	540
563.015	572
563.067	573
563.12	561
563.172	574
563.224	574
563.276	607
563.328	614
563.38	596
563.432	606
563.484	599
563.536	594
563.588	620
563.64	648
563.692	638
563.744	631
563.797	647
563.849	662
563.901	678
563.953	678
564.005	715
564.057	700
564.109	712
564.161	742
564.213	726
564.265	713
564.317	752
564.369	728
564.421	735
564.474	726
564.526	715
564.578	714
564.63	705
564.682	711
564.734	700
564.786	683
564.838	663
564.89	671
564.942	691
564.994	700
565.046	688
565.098	656
565.15	655
565.202	669
565.255	634
565.307	674
565.359	678
565.411	667
565.463	681
565.515	684
565.567	672
565.619	693
565.671	690
565.723	674
565.775	668
565.827	674
565.879	688
565.931	721
565.983	683
566.035	679
566.087	676
566.139	678
566.192	680
566.244	692
566.296	686
566.348	696
566.4	689
566.452	706
566.504	715
566.556	707
566.608	719
566.66	704
566.712	702
566.764	738
566.816	706
566.868	714
566.92	704
566.972	735
567.024	744
567.076	756
567.128	727
567.18	747
567.232	728
567.285	762
567.337	730
567.389	731
567.441	754
567.493	747
567.545	749
567.597	739
567.649	764
567.701	743
567.753	748
567.805	766
567.857	769
567.909	780
567.961	764
568.013	783
568.065	768
568.117	771.92
568.169	777.847
568.221	779.525
568.273	783.094
568.325	783.325
568.377	783.574
568.429	800.531
568.481	811.2
568.533	820.874
568.585	820.49
568.637	808.53
568.69	788.031
568.742	830.194
568.794	798.993
568.846	812.724
568.898	830.349
568.95	823.621
569.002	812.169
569.054	831.324
569.106	837.475
569.158	836.199
569.21	853.346
569.262	828.803
569.314	859.64
569.366	854.297
569.418	860.487
569.47	856.469
569.522	867.96
569.574	860.478
569.626	866.417
569.678	885.626
569.73	874.601
569.782	881.382
569.834	890.342
569.886	883.588
569.938	888.718
569.99	884.411
570.042	911.641
570.094	901.936
570.146	907.379
570.198	928.911
570.25	911.589
570.302	936.528
570.354	913.36
570.406	930.234
570.458	938.8
570.51	962.801
570.562	979.537
570.614	963.745
570.666	962.566
570.718	979.725
570.77	981.662
570.822	992.05
570.874	981.4
570.926	997.2
570.978	1007.83
571.03	1026.83
571.082	1019.55
571.134	1025.34
571.186	1043.56
571.238	1048.8
571.29	1047.53
571.342	1069.6
571.394	1077.79
571.446	1089.55
571.498	1082.37
571.55	1084.78
571.602	1095.74
571.654	1148.47
571.706	1128.77
571.758	1146.12
571.81	1150.61
571.862	1148.62
571.914	1177.24
571.966	1168.42
572.018	1204.65
572.07	1189.07
572.122	1211.5
572.174	1233.87
572.226	1237.11
572.278	1268.97
572.33	1273.05
572.382	1299.12
572.434	1284.38
572.486	1305.23
572.538	1322.26
572.59	1323.22
572.642	1345.87
572.694	1336.28
572.746	1344.1
572.798	1368.27
572.85	1364.89
572.902	1385.54
572.954	1404.98
573.006	1444.22
573.058	1448.2
573.11	1455.21
573.162	1506.47
573.214	1482.41
573.266	1509.51
573.312	1510
573.364	1561
573.416	1571
573.469	1545
573.521	1615
573.573	1667
573.625	1657
573.677	1681
573.73	1749
573.782	1716
573.834	1737
573.886	1766
573.938	1838
573.991	1835
574.043	1876
574.095	1916
574.147	1929
574.199	1929
574.252	1968
574.304	2019
574.356	2058
574.408	2092
574.46	2130
574.513	2151
574.565	2199
574.617	2218
574.669	2245
574.721	2288
574.774	2367
574.826	2384
574.878	2409
574.93	2441
574.982	2531
575.035	2555
575.087	2620
575.139	2618
575.191	2731
575.243	2708
575.296	2800
575.348	2827
575.4	2856
575.452	2809
575.504	2857
575.556	2923
575.609	2990
575.661	2975
575.713	2966
575.765	3051
575.817	2993
575.87	2995
575.922	3044
575.974	3044
576.026	3054
576.078	3085
576.131	3088
576.183	3108
576.235	3089
576.287	3012
576.339	3020
576.391	2994
576.444	2934
576.496	2961
576.548	2889
576.6	2924
576.652	2874
576.705	2837
576.757	2796
576.809	2787
576.861	2769
576.913	2732
576.965	2756
577.018	2667
577.07	2636
577.122	2628
577.174	2582
577.226	2573
577.279	2535
577.331	2536
577.383	2479
577.435	2450
577.487	2410
577.539	2357
577.592	2353
577.644	2339
577.696	2295
577.748	2291
577.8	2269
577.852	2227
577.905	2183
577.957	2206
578.009	2200
578.061	2199
578.113	2171
578.165	2098
578.218	2077
578.27	2068
578.322	2080
578.374	2050
578.426	2054
578.478	2051
578.531	1999
578.583	2003
578.635	1966
578.687	2015
578.739	1958
578.791	1939
578.844	1955
578.896	1949
578.948	1942
579	1950
579.052	1923
579.104	1915
579.157	1936
579.209	1919
579.261	1890
579.313	1948
579.365	1915
579.417	1941
579.47	1920
579.522	1867
579.574	1913
579.626	1943
579.678	1942
579.73	1887
579.782	1907
579.835	1920
579.887	1922
579.939	1917
579.991	1897
580.043	1928
580.095	1932
580.148	1923
580.2	1922
580.252	1924
580.304	1917
580.356	1950
580.408	1915
580.46	1933
580.513	1925
580.565	1906
580.617	1897
580.669	1931
580.721	1945
580.773	1967
580.826	1913
580.878	1882
580.93	1922
580.982	1910
581.034	1933
581.086	1956
581.138	1904
581.191	1960
581.243	1916
581.295	1899
581.347	1916
581.399	1940
581.451	1907
581.503	1925
581.556	1992
581.608	1923
581.66	1927
581.712	1937
581.764	1939
581.816	1952
581.868	1954
581.92	1971
581.973	1938
582.025	1975
582.077	1984
582.129	2024
582.181	1957
582.233	2014
582.285	1992
582.338	2009
582.39	2049
582.442	2010
582.494	1963
582.546	1990
582.598	2009
582.65	2002
582.703	2013
582.755	2037
582.807	2067
582.859	2065
582.911	2026
582.963	2056
583.015	2025
583.067	2047
583.12	2064
583.172	2066
583.224	2044
583.276	2055
583.328	2057
583.38	2082
583.432	2055
583.484	2051
583.537	2105
583.589	2100
583.641	2101
583.693	2143
583.745	2104
583.797	2153
583.849	2149
583.901	2141
583.953	2138
584.006	2140
584.058	2183
584.11	2179
584.162	2179
584.214	2214
584.266	2174
584.318	2215
584.37	2208
584.423	2248
584.475	2193
584.527	2233
584.579	2260
584.631	2279
584.683	2287
584.735	2243
584.787	2288
584.839	2288
584.892	2290
584.944	2332
584.996	2298
585.048	2315
585.1	2332
585.152	2351
585.204	2353
585.256	2340
585.308	2345
585.361	2347
585.413	2387
585.465	2343
585.517	2427
585.569	2392
585.621	2444
585.673	2426
585.725	2430
585.777	2405
585.83	2382
585.882	2418
585.934	2475
585.986	2476
586.038	2430
586.09	2470
586.142	2449
586.194	2461
586.246	2475
586.298	2530
586.351	2499
586.403	2505
586.455	2532
586.507	2525
586.559	2485
586.611	2541
586.663	2582
586.715	2513
586.767	2499
586.819	2580
586.872	2579
586.924	2588
586.976	2601
587.028	2578
587.08	2558
587.132	2579
587.184	2576
587.236	2556
587.288	2595
587.34	2605
587.392	2582
587.445	2629
587.497	2564
587.549	2608
587.601	2604
587.653	2610
587.705	2624
587.757	2580
587.809	2579
587.861	2619
587.913	2590
587.965	2644
588.018	2665
588.07	2618
588.122	2624
588.174	2642
588.226	2636
588.278	2705
588.33	2643
588.382	2669
588.434	2650
588.486	2636
588.538	2623
588.59	2652
588.642	2659
588.695	2648
588.747	2679
588.799	2659
588.851	2665
588.903	2631
588.955	2702
589.007	2685
589.059	2655
589.111	2705
589.163	2744
589.215	2734
589.267	2694
589.319	2751
589.372	2731
589.424	2729
589.476	2759
589.528	2752
589.58	2722
589.632	2738
589.684	2743
589.736	2746
589.788	2751
589.84	2803
589.892	2708
589.944	2762
589.996	2713
590.048	2707
590.101	2728
590.153	2772
590.205	2694
590.257	2730
590.309	2705
590.361	2791
590.413	2745
590.465	2742
590.517	2749
590.569	2723
590.621	2772
590.673	2719
590.725	2725
590.777	2721
590.829	2750
590.881	2738
590.933	2731
590.986	2764
591.038	2708
591.09	2750
591.142	2692
591.194	2741
591.246	2719
591.298	2721
591.35	2707
591.402	2718
591.454	2698
591.506	2697
591.558	2733
591.61	2704
591.662	2694
591.714	2707
591.766	2681
591.818	2704
591.87	2656
591.923	2644
591.975	2633
592.027	2710
592.079	2614
592.131	2679
592.183	2675
592.235	2631
592.287	2682
592.339	2651
592.391	2676
592.443	2706
592.495	2703
592.547	2635
592.599	2702
592.651	2663
592.703	2677
592.755	2665
592.807	2696
592.859	2624
592.911	2691
592.963	2631
593.015	2678
593.068	2706
593.12	2673
593.172	2670
593.224	2687
593.276	2678
593.328	2665
593.38	2691
593.432	2660
593.484	2666
593.536	2702
593.588	2690
593.64	2636
593.692	2708
593.744	2664
593.796	2646
593.848	2674
593.9	2669
593.952	2676
594.004	2655
594.056	2732
594.108	2704
594.16	2734
594.212	2718
594.264	2647
594.316	2704
594.368	2702
594.42	2696
594.472	2717
594.524	2745
594.576	2714
594.628	2725
594.68	2716
594.732	2724
594.784	2760
594.837	2759
594.889	2749
594.941	2779
594.993	2796
595.045	2707
595.097	2764
595.149	2819
595.201	2796
595.253	2739
595.305	2767
595.357	2811
595.409	2780
595.461	2814
595.513	2801
595.565	2835
595.617	2818
595.669	2860
595.721	2822
595.773	2848
595.825	2853
595.877	2840
595.929	2899
595.981	2871
596.033	2917
596.085	2885
596.137	2864
596.189	2856
596.241	2931
596.293	2899
596.345	2905
596.397	2928
596.449	2994
596.501	2925
596.553	2934
596.605	2977
596.657	2984
596.709	3043
596.761	3059
596.813	3096
596.865	3003
596.917	3006
596.969	3006
597.021	3015
597.073	3018
597.125	3078
597.177	3068
597.229	3064
597.281	3063
597.333	3094
597.385	3049
597.437	3122
597.489	3091
597.541	3108
597.593	3085
597.645	3083
597.697	3139
597.749	3068
597.801	3112
597.853	3155
597.905	3130
597.957	3090
598.009	3166
598.061	3151
598.113	3111
598.165	3174
598.217	3144
598.269	3108
598.321	3116
598.373	3160
598.425	3128
598.477	3140
598.529	3095
598.581	3106
598.633	3167
598.685	3201
598.737	3126
598.789	3173
598.841	3158
598.893	3094
598.945	3149
598.997	3139
599.049	3167
599.101	3118
599.153	3097
599.205	3135
599.257	3166
599.309	3160
599.361	3155
599.413	3148
599.465	3128
599.517	3122
599.569	3112
599.62	3143
599.672	3111
599.724	3108
599.776	3183
599.828	3170
599.88	3151
599.932	3144
599.984	3085
600.036	3127
600.088	3130
600.14	3141
600.192	3121
600.244	3149
600.296	3125
600.348	3153
600.4	3185
600.452	3163
600.504	3121
600.556	3149
600.608	3169
600.66	3138
600.712	3167
600.764	3184
600.816	3147
600.868	3171
600.92	3157
600.972	3148
601.024	3200
601.076	3083
601.128	3157
601.18	3123
601.232	3150
601.284	3132
601.335	3150
601.387	3151
601.439	3179
601.491	3105
601.543	3177
601.595	3175
601.647	3150
601.699	3151
601.751	3173
601.803	3128
601.855	3165
601.907	3172
601.959	3160
602.011	3129
602.063	3201
602.115	3197
602.167	3164
602.219	3144
602.271	3172
602.323	3139
602.375	3120
602.427	3178
602.478	3197
602.53	3173
602.582	3185
602.634	3165
602.686	3196
602.738	3167
602.79	3217
602.842	3241
602.894	3250
602.946	3231
602.998	3187
603.05	3272
603.102	3207
603.154	3272
603.206	3208
603.258	3247
603.31	3141
603.362	3226
603.413	3189
603.465	3216
603.517	3253
603.569	3231
603.621	3261
603.673	3237
603.725	3260
603.777	3201
603.829	3278
603.881	3269
603.933	3283
603.985	3282
604.037	3241
604.089	3248
604.141	3255
604.193	3272
604.244	3295
604.296	3272
604.348	3275
604.4	3271
604.452	3304
604.504	3276
604.556	3264
604.608	3338
604.66	3269
604.712	3301
604.764	3308
604.816	3313
604.868	3268
604.92	3314
604.971	3309
605.023	3296
605.075	3335
605.127	3318
605.179	3311
605.231	3332
605.283	3339
605.335	3287
605.387	3263
605.439	3339
605.491	3269
605.543	3313
605.594	3354
605.646	3267
605.698	3285
605.75	3287
605.802	3293
605.854	3328
605.906	3296
605.958	3276
606.01	3237
606.062	3288
606.114	3299
606.166	3325
606.217	3278
606.269	3304
606.321	3267
606.373	3378
606.425	3286
606.477	3299
606.529	3324
606.581	3364
606.633	3356
606.685	3333
606.737	3293
606.789	3269
606.84	3302
606.892	3350
606.944	3307
606.996	3261
607.048	3307
607.1	3369
607.152	3328
607.204	3316
607.256	3291
607.308	3307
607.359	3343
607.411	3322
607.463	3325
607.515	3326
607.567	3318
607.619	3314
607.671	3376
607.723	3304
607.775	3338
607.827	3291
607.878	3322
607.93	3401
607.982	3361
608.034	3306
608.086	3283
608.138	3382
608.19	3358
608.242	3371
608.294	3354
608.345	3427
608.397	3379
608.449	3377
608.501	3380
608.553	3389
608.605	3341
608.657	3396
608.709	3388
608.761	3399
608.812	3388
608.864	3399
608.916	3409
608.968	3481
609.02	3407
609.072	3477
609.124	3453
609.176	3440
609.228	3467
609.279	3469
609.331	3531
609.383	3453
609.435	3469
609.487	3485
609.539	3458
609.591	3450
609.643	3468
609.694	3468
609.746	3504
609.798	3536
609.85	3493
609.902	3486
609.954	3553
610.006	3531
610.058	3499
610.109	3540
610.161	3470
610.213	3505
610.265	3529
610.317	3493
610.369	3551
610.421	3563
610.473	3563
610.524	3505
610.576	3570
610.628	3585
610.68	3545
610.732	3591
610.784	3547
610.836	3566
610.887	3558
610.939	3616
610.991	3569
611.043	3544
611.095	3594
611.147	3575
611.199	3631
611.25	3562
611.302	3542
611.354	3537
611.406	3565
611.458	3583
611.51	3594
611.562	3594
611.614	3543
611.665	3631
611.717	3620
611.769	3568
611.821	3644
611.873	3623
611.925	3610
611.977	3650
612.028	3611
612.08	3663
612.132	3636
612.184	3660
612.236	3630
612.288	3677
612.339	3629
612.391	3738
612.443	3645
612.495	3701
612.547	3700
612.599	3719
612.651	3734
612.702	3714
612.754	3671
612.806	3722
612.858	3684
612.91	3665
612.962	3718
613.013	3713
613.065	3768
613.117	3726
613.169	3724
613.221	3777
613.273	3706
613.325	3751
613.376	3709
613.428	3681
613.48	3767
613.532	3765
613.584	3796
613.635	3767
613.687	3818
613.739	3754
613.791	3794
613.843	3793
613.895	3790
613.947	3852
613.998	3844
614.05	3770
614.102	3843
614.154	3817
614.206	3838
614.258	3845
614.309	3834
614.361	3915
614.413	3903
614.465	3860
614.517	3873
614.568	3879
614.62	3886
614.672	3925
614.724	3967
614.776	3925
614.828	3907
614.879	3888
614.931	3953
614.983	3921
615.035	3918
615.087	3914
615.139	3949
615.19	3953
615.242	3965
615.294	3968
615.346	3989
615.398	3959
615.449	3965
615.501	4004
615.553	4014
615.605	4015
615.657	4018
615.709	4012
615.76	3999
615.812	4051
615.864	4032
615.916	4054
615.968	4085
616.019	4004.32
616.071	4106.64
616.123	4061.46
616.175	4063.41
616.227	4099.12
616.278	4097.64
616.33	4093.6
616.382	4092.64
616.434	4125
616.486	4105.58
616.537	4091.32
616.589	4098.36
616.641	4141.34
616.693	4091.25
616.745	4142.07
616.797	4082.18
616.848	4126.88
616.9	4142.28
616.952	4135
617.004	4138.8
617.056	4125.41
617.107	4084.54
617.159	4161.47
617.211	4156.49
617.263	4108.91
617.315	4124.42
617.366	4166.56
617.418	4199.24
617.47	4129.26
617.522	4188.86
617.573	4172.44
617.625	4208.45
617.677	4140.51
617.729	4183.3
617.781	4154.12
617.832	4156.47
617.884	4220.15
617.936	4185.55
617.988	4179.27
618.04	4168.49
618.091	4272.87
618.143	4346.63
618.195	4245.75
618.247	4214.26
618.299	4275.16
618.35	4269.42
618.402	4209.45
618.454	4231.82
618.506	4246.82
618.557	4210.94
618.609	4269.27
618.661	4234.76
618.713	4253.62
618.765	4234.58
618.816	4264.67
618.868	4256.98
618.92	4237.17
618.972	4242.04
619.023	4244.27
619.075	4274.97
619.127	4308.79
619.179	4294.41
619.231	4316.56
619.282	4325.44
619.334	4336.01
619.386	4312.33
619.438	4306.13
619.49	4323.4
619.541	4321.87
619.593	4327.9
619.645	4280.61
619.697	4295.48
619.748	4312.02
619.8	4329.21
619.852	4325.84
619.904	4342.46
619.955	4315.69
620.007	4332.41
620.059	4341.97
620.111	4344.19
620.162	4401.22
620.214	4403.36
620.266	4358.19
620.318	4359.96
620.37	4344.13
620.421	4348.02
620.473	4397.17
620.525	4386.66
620.577	4348.91
620.628	4366.9
620.68	4356.15
620.732	4391.47
620.784	4376.8
620.835	4370.86
620.887	4350.88
620.939	4366.83
620.991	4398.25
621.042	4418.77
621.094	4421.45
621.146	4413.77
621.198	4393.72
621.249	4362.54
621.269	4349
621.321	4415
621.373	4296
621.425	4388
621.477	4431
621.529	4424
621.581	4433
621.633	4445
621.685	4436
621.737	4363
621.789	4441
621.841	4432
621.893	4420
621.945	4385
621.997	4471
622.049	4441
622.101	4416
622.153	4436
622.205	4462
622.257	4424
622.309	4489
622.361	4420
622.413	4397
622.465	4406
622.517	4412
622.569	4423
622.621	4421
622.673	4467
622.725	4397
622.776	4563
622.828	4446
622.88	4455
622.932	4522
622.984	4466
623.036	4497
623.088	4493
623.14	4486
623.192	4548
623.244	4519
623.296	4487
623.348	4493
623.4	4492
623.452	4503
623.504	4499
623.556	4475
623.608	4540
623.66	4518
623.712	4528
623.764	4494
623.816	4527
623.868	4508
623.92	4513
623.972	4513
624.024	4409
624.076	4530
624.128	4568
624.18	4508
624.232	4553
624.284	4511
624.336	4599
624.388	4551
624.44	4543
624.492	4518
624.544	4532
624.596	4562
624.648	4547
624.699	4482
624.751	4596
624.803	4536
624.855	4581
624.907	4597
624.959	4493
625.011	4551
625.063	4617
625.115	4570
625.167	4614
625.219	4535
625.271	4631
625.323	4596
625.375	4649
625.427	4608
625.479	4646
625.531	4656
625.583	4606
625.635	4665
625.687	4644
625.739	4581
625.791	4625
625.843	4592
625.895	4593
625.946	4639
625.998	4696
626.05	4645
626.102	4659
626.154	4676
626.206	4622
626.258	4715
626.31	4605
626.362	4668
626.414	4720
626.466	4678
626.518	4704
626.57	4691
626.622	4700
626.674	4732
626.726	4683
626.778	4678
626.83	4762
626.882	4767
626.934	4712
626.985	4709
627.037	4763
627.089	4710
627.141	4746
627.193	4806
627.245	4759
627.297	4795
627.349	4771
627.401	4770
627.453	4814
627.505	4740
627.557	4806
627.609	4776
627.661	4827
627.713	4834
627.765	4724
627.817	4770
627.868	4800
627.92	4807
627.972	4783
628.024	4811
628.076	4814
628.128	4850
628.18	4816
628.232	4807
628.284	4805
628.336	4842
628.388	4816
628.44	4878
628.492	4898
628.544	4830
628.596	4902
628.647	4858
628.699	4844
628.751	4882
628.803	4839
628.855	4847
628.907	4933
628.959	4888
629.011	4924
629.063	4966
629.115	4915
629.167	4942
629.219	4888
629.271	4957
629.322	4917
629.374	4914
629.426	5001
629.478	4929
629.53	4934
629.582	4975
629.634	4928
629.686	4973
629.738	4950
629.79	5001
629.842	4974
629.894	5024
629.945	4997
629.997	4989
630.049	5000
630.101	4947
630.153	5020
630.205	5032
630.257	5031
630.309	5060
630.361	5005
630.413	5065
630.465	5028
630.517	5018
630.568	5069
630.62	5082
630.672	4997
630.724	5098
630.776	5076
630.828	5102
630.88	5088
630.932	5115
630.984	5087
631.036	5109
631.088	5160
631.14	5124
631.191	5108
631.243	5155
631.295	5101
631.347	5139
631.399	5158
631.451	5209
631.503	5184
631.555	5085
631.607	5209
631.659	5179
631.71	5154
631.762	5196
631.814	5168
631.866	5240
631.918	5156
631.97	5217
632.022	5262
632.074	5286
632.126	5213
632.178	5332
632.229	5208
632.281	5294
632.333	5210
632.385	5229
632.437	5252
632.489	5277
632.541	5363
632.593	5250
632.645	5368
632.696	5315
632.748	5391
632.8	5335
632.852	5397
632.904	5364
632.956	5387
633.008	5418
633.06	5430
633.112	5344
633.164	5443
633.215	5443
633.267	5479
633.319	5430
633.371	5445
633.423	5514
633.475	5474
633.527	5553
633.579	5458
633.63	5464
633.682	5481
633.734	5521
633.786	5523
633.838	5489
633.89	5513
633.942	5490
633.994	5584
634.046	5606
634.097	5621
634.149	5569
634.201	5595
634.253	5658
634.305	5593
634.357	5615
634.409	5626
634.461	5673
634.512	5659
634.564	5669
634.616	5661
634.668	5658
634.72	5729
634.772	5736
634.824	5645
634.876	5758
634.927	5727
634.979	5726
635.031	5821
635.083	5773
635.135	5797
635.187	5814
635.239	5770
635.291	5814
635.342	5843
635.394	5851
635.446	5798
635.498	5849
635.55	5943
635.602	5930
635.654	5932
635.705	5942
635.757	6010
635.809	6036
635.861	6054
635.913	6049
635.965	6084
636.017	6086
636.068	6088
636.12	6149
636.172	6125
636.224	6215
636.276	6233
636.328	6284
636.38	6285
636.431	6352
636.483	6307
636.535	6381
636.587	6459
636.639	6447
636.691	6481
636.743	6540
636.794	6621
636.846	6686
636.898	6739
636.95	6648
637.002	6777
637.054	6758
637.106	6908
637.157	6937
637.209	6996
637.261	7091
637.313	7157
637.365	7128
637.417	7215
637.469	7331
637.52	7493
637.572	7553
637.624	7642
637.676	7695
637.728	7763
637.78	7731
637.831	7868
637.883	7963
637.935	8109
637.987	8094
638.039	8173
638.091	8167
638.143	8319
638.194	8326
638.246	8435
638.298	8317
638.35	8407
638.402	8406
638.454	8424
638.505	8474
638.557	8483
638.609	8396
638.661	8400
638.713	8400
638.765	8427
638.816	8356
638.868	8325
638.92	8255
638.972	8224
639.024	8312
639.076	8206
639.127	8244
639.179	8115
639.231	8067
639.283	8003
639.335	7908
639.387	7914
639.438	7821
639.49	7823
639.542	7754
639.594	7761
639.646	7695
639.698	7617
639.749	7605
639.801	7484
639.853	7535
639.905	7507
639.957	7462
640.008	7356
640.06	7436
640.112	7386
640.164	7332
640.216	7204
640.268	7235
640.319	7249
640.371	7255
640.423	7196
640.475	7187
640.527	7168
640.578	7149
640.63	7080
640.682	7149
640.734	7047
640.786	7055
640.838	7070
640.889	7069
640.941	7084
640.993	7053
641.045	7001
641.097	6921
641.148	6982
641.2	6962
641.252	6947
641.304	6886
641.356	6896
641.408	6929
641.459	6918
641.511	6957
641.563	6867
641.615	6935
641.667	6863
641.718	6881
641.77	6945
641.822	6771
641.874	6929
641.926	6900
641.977	6913
642.029	6891
642.081	6837
642.133	6910
642.185	6829
642.236	6892
642.288	6863
642.34	6815
642.392	6902
642.444	6866
642.495	6931
642.547	6796
642.599	6898
642.651	6981
642.703	6845
642.754	6849
642.806	6834
642.858	6920
642.91	6868
642.962	6797
643.013	6856
643.065	6901
643.117	6829
643.169	6945
643.221	6886
643.272	6923
643.324	6871
643.376	6927
643.428	6905
643.479	6896
643.531	6886
643.583	6876
643.635	6885
643.687	6976
643.738	6927
643.79	6939
643.842	6937
643.894	6918
643.946	6886
643.997	6845
644.049	6911
644.101	6954
644.153	6848
644.205	6919
644.256	6922
644.308	6967
644.36	6923
644.412	6976
644.463	6986
644.515	7013
644.567	7029
644.619	6933
644.671	6957
644.722	7010
644.774	7041
644.826	6964
644.878	7000
644.929	7060
644.981	7034
645.033	7027
645.085	6977
645.136	7002
645.188	7066
645.24	7036
645.292	7100
645.344	7066
645.395	7046
645.447	7043
645.499	6988
645.551	7091
645.602	7143
645.654	7083
645.706	7102
645.758	7093
645.81	7113
645.861	7183
645.913	7107
645.965	7145
646.017	7154
646.068	7170
646.12	7163
646.172	7125
646.224	7156
646.275	7128
646.327	7100
646.379	7117
646.431	7173
646.482	7159
646.534	7170
646.586	7152
646.638	7170
646.689	7193
646.741	7182
646.793	7173
646.845	7207
646.896	7283
646.948	7247
647	7250
647.052	7250
647.104	7152
647.155	7261
647.207	7280
647.259	7211
647.31	7197
647.362	7280
647.414	7256
647.466	7301
647.518	7303
647.569	7241
647.621	7283
647.673	7295
647.724	7304
647.776	7250
647.828	7330
647.88	7282
647.931	7315
647.983	7440
648.035	7324
648.087	7391
648.138	7280
648.19	7336
648.242	7401
648.294	7364
648.345	7329
648.397	7335
648.449	7364
648.501	7337
648.552	7359
648.604	7383
648.656	7421
648.708	7478
648.759	7477
648.811	7471
648.863	7391
648.915	7450
648.966	7478
649.018	7434
649.07	7480
649.121	7574
649.173	7566
649.225	7503
649.277	7524
649.328	7496
649.38	7475
649.432	7467
649.484	7588
649.535	7594
649.587	7554
649.639	7509
649.69	7598
649.742	7578
649.794	7614
649.846	7538
649.897	7632
649.949	7629
650.001	7632
650.053	7577
650.104	7683
650.156	7690
650.208	7703
650.259	7642
650.311	7712
650.363	7738
650.415	7729
650.466	7716
650.518	7705
650.57	7782
650.621	7736
650.673	7741
650.725	7784
650.777	7765
650.828	7736
650.88	7849
650.932	7771
650.984	7833
651.035	7803
651.087	7781
651.139	7732
651.19	7882
651.242	7852
651.294	7866
651.345	7847
651.397	7886
651.449	7841
651.501	7883
651.552	7909
651.604	7956
651.656	8021
651.707	8017
651.759	7904
651.811	7971
651.863	7959
651.914	7985
651.966	7967
652.018	8001
652.069	7949
652.121	8045
652.173	8081
652.224	8046
652.276	8001
652.328	8054
652.38	7998
652.431	8088
652.483	8043
652.535	8032
652.586	8075
652.638	8106
652.69	8084
652.741	8230
652.793	8148
652.845	8181
652.897	8160
652.948	8127
653	8159
653.052	8150
653.103	8141
653.155	8196
653.207	8245
653.258	8236
653.31	8351
653.362	8193
653.413	8225
653.465	8306
653.517	8234
653.568	8291
653.62	8371
653.672	8279
653.724	8385
653.775	8255
653.827	8409
653.879	8361
653.93	8304
653.982	8367
654.034	8392
654.085	8455
654.137	8373
654.189	8476
654.24	8441
654.292	8490
654.344	8574
654.395	8477
654.447	8506
654.499	8496
654.55	8509
654.602	8570
654.654	8527
654.705	8591
654.757	8572
654.809	8584
654.86	8635
654.912	8575
654.964	8632
655.016	8711
655.067	8718
655.119	8682
655.17	8713
655.222	8726
655.274	8850
655.326	8841
655.377	8786
655.429	8802
655.481	8820
655.532	8798
655.584	8824
655.635	8850
655.687	8904
655.739	8955
655.79	8904
655.842	8954
655.894	9006
655.945	8969
655.997	8976
656.049	9002
656.1	9109
656.152	9123
656.204	9100
656.255	9006
656.307	9089
656.359	9113
656.41	9134
656.462	9130
656.514	9148
656.565	9170
656.617	9217
656.669	9228
656.72	9207
656.772	9242
656.824	9290
656.875	9282
656.927	9338
656.979	9343
657.03	9311
657.082	9345
657.134	9299
657.185	9484
657.237	9443
657.288	9491
657.34	9415
657.392	9432
657.443	9422
657.495	9550
657.547	9529
657.598	9574
657.65	9563
657.702	9497
657.753	9643
657.805	9588
657.857	9560
657.908	9620
657.96	9630
658.011	9671
658.063	9625
658.115	9629
658.166	9594
658.218	9754
658.27	9673
658.321	9751
658.373	9678
658.425	9746
658.476	9770
658.528	9758
658.579	9738
658.631	9841
658.683	9828
658.734	9849
658.786	9887
658.838	9803
658.889	9802
658.941	9872
658.992	9808
659.044	9889
659.096	9783
659.147	9856
659.199	9918
659.251	9868
659.302	9847
659.354	9814
659.406	9846
659.457	9897
659.509	9823
659.56	9948
659.612	9988
659.664	9958
659.715	9999
659.767	9989
659.818	9894
659.87	9968
659.922	9999
659.973	9868
660.025	9919
660.077	10071
660.128	9911
660.18	9886
660.231	9953
660.283	9970
660.335	10012
660.386	9953
660.438	9966
660.49	9981
660.541	9949
660.593	10040
660.644	10004
660.696	9985
660.748	10003
660.799	9952
660.851	9908
660.902	9991
660.954	9918
661.006	9975
661.057	9965
661.109	10001
661.16	10000
661.212	10046
661.264	9976
661.315	10009
661.367	9988
661.418	10037
661.47	10020
661.522	9947
661.573	9918
661.625	9983
661.676	10040
661.728	9985
661.78	10029
661.831	9995
661.883	10054
661.934	9975
661.986	10028
662.038	10008
662.089	10057
662.141	10007
662.192	10003
662.244	9964
662.296	9963
662.347	9996
662.399	10032
662.45	10052
662.502	10049
662.554	9948
662.605	10014
662.657	10076
662.708	10027
662.76	9993
662.811	9973
662.863	10001
662.915	9999
662.966	10113
663.018	9930
663.069	10020
663.121	9994
663.173	10065
663.224	10005
663.276	9954
663.327	9994
663.379	10008
663.43	10082
663.482	9934
663.534	10090
663.585	10027
663.637	10008
663.688	10011
663.74	10025
663.792	10059.5
663.843	10094.8
663.895	10063.8
663.946	10043.3
663.998	10006.8
664.049	9970.21
664.101	10038.6
664.153	10021.6
664.204	10009.5
664.256	10018.5
664.307	10001.8
664.359	10001.5
664.41	10015.3
664.462	10062
664.513	10040.8
664.565	10000.4
664.617	10057.4
664.668	10055.8
664.72	10076.8
664.771	10036.9
664.823	10095.8
664.874	10007.7
664.926	10028.9
664.978	10014.6
665.029	10070.1
665.081	10010.4
665.132	10012.9
665.184	10057.2
665.235	10071.1
665.287	10015.8
665.339	10050.1
665.39	10068.3
665.442	10023
665.493	10035
665.545	10020.3
665.596	10008.1
665.648	10015.7
665.699	10050.4
665.751	10070
665.802	10064.9
665.854	10010.7
665.906	10020.3
665.957	10074
666.009	10014.6
666.06	10018.1
666.112	9999.52
666.163	10025.7
666.215	10097
666.266	10003
666.318	10019
666.37	10010.6
666.421	9998.52
666.473	10058.4
666.524	10045.5
666.576	10019.1
666.627	10004
666.679	10020.3
666.73	10024.8
666.782	10025
666.833	10043.4
666.885	10024.2
666.937	10032.8
666.988	10052.9
667.04	10016.9
667.091	9982.86
667.143	10005.3
667.194	10075.1
667.246	10048.5
667.297	10077.1
667.349	10058.3
667.4	9984.66
667.452	10029.5
667.503	10063.5
667.555	10050.3
667.607	10108.2
667.658	10045.1
667.71	10009
667.761	10050.3
667.813	10068.5
667.864	10054.8
667.916	10018.6
667.967	10021.1
668.019	10036.1
668.07	10037.7
668.122	10049
668.173	10056.7
668.225	10064
668.276	10051.1
668.328	10072
668.379	10026.4
668.431	9982.17
668.482	10007.2
668.534	10084.4
668.586	10046.7
668.637	9988.62
668.689	10029.1
668.74	10042.4
668.792	10029.4
668.843	10075.9
668.895	10008
668.935	10040
668.987	10031
669.038	10133
669.09	10020
669.142	10074
669.194	10012
669.245	10015
669.297	9964
669.349	9985
669.401	10057
669.453	9965
669.504	10020
669.556	10101
669.608	10093
669.66	9985
669.711	9954
669.763	9997
669.815	10078
669.867	10035
669.918	10063
669.97	9998
670.022	10045
670.074	9913
670.125	9928
670.177	10044
670.229	9922
670.281	10029
670.332	10027
670.384	9976
670.436	10026
670.488	9956
670.539	10012
670.591	10087
670.643	9867
670.695	9986
670.747	9954
670.798	10014
670.85	10050
670.902	10021
670.953	10010
671.005	9970
671.057	10035
671.109	10044
671.161	10040
671.212	9989
671.264	9999
671.316	10058
671.367	10078
671.419	9996
671.471	9998
671.523	10014
671.575	10064
671.626	10019
671.678	10046
671.73	10027
671.781	9968
671.833	9970
671.885	10037
671.937	9927
671.988	10082
672.04	10033
672.092	10105
672.144	10112
672.195	10040
672.247	10078
672.299	10052
672.351	10136
672.402	9998
672.454	10105
672.506	10151
672.558	10031
672.609	10092
672.661	10098
672.713	10134
672.765	10053
672.816	10061
672.868	10139
672.92	10083
672.971	10136
673.023	10167
673.075	10209
673.127	10094
673.178	10139
673.23	10191
673.282	10178
673.334	10129
673.385	10208
673.437	10250
673.489	10205
673.54	10259
673.592	10304
673.644	10253
673.696	10152
673.747	10208
673.799	10253
673.851	10186
673.903	10340
673.954	10274
674.006	10228
674.058	10242
674.109	10394
674.161	10350
674.213	10397
674.265	10353
674.316	10298
674.368	10348
674.42	10368
674.471	10413
674.523	10309
674.575	10468
674.627	10510
674.678	10475
674.73	10388
674.782	10402
674.833	10356
674.885	10532
674.937	10486
674.989	10402
675.04	10494
675.092	10435
675.144	10473
675.195	10505
675.247	10543
675.299	10429
675.351	10553
675.402	10543
675.454	10636
675.506	10516
675.557	10525
675.609	10492
675.661	10583
675.713	10622
675.764	10497
675.816	10446
675.868	10572
675.919	10571
675.971	10621
676.023	10579
676.074	10586
676.126	10577
676.178	10636
676.23	10570
676.281	10644
676.333	10579
676.385	10570
676.436	10599
676.488	10527
676.54	10722
676.591	10588
676.643	10768
676.695	10584
676.747	10655
676.798	10691
676.85	10576
676.902	10601
676.953	10723
677.005	10594
677.057	10682
677.108	10665
677.16	10590
677.212	10694
677.263	10692
677.315	10662
677.367	10643
677.419	10651
677.47	10659
677.522	10630
677.574	10672
677.625	10729
677.677	10633
677.729	10645
677.78	10726
677.832	10753
677.884	10706
677.935	10646
677.987	10686
678.039	10706
678.091	10691
678.142	10665
678.194	10599
678.246	10658
678.297	10682
678.349	10630
678.401	10616
678.452	10761
678.504	10645
678.556	10697
678.607	10780
678.659	10619
678.711	10741
678.762	10691
678.814	10698
678.866	10687
678.917	10668
678.969	10714
679.021	10676
679.072	10676
679.124	10662
679.176	10753
679.227	10673
679.279	10681
679.331	10635
679.382	10789
679.434	10617
679.486	10690
679.537	10723
679.589	10718
679.641	10682
679.692	10721
679.744	10770
679.796	10638
679.847	10615
679.899	10707
679.951	10676
680.003	10762
680.054	10794
680.106	10741
680.157	10682
680.209	10748
680.261	10844
680.312	10747
680.364	10644
680.416	10767
680.467	10656
680.519	10856
680.571	10833
680.622	10803
680.674	10745
680.726	10865
680.777	10804
680.829	10770
680.881	10800
680.932	10832
680.984	10781
681.036	10804
681.087	10792
681.139	10852
681.191	10927
681.242	10817
681.294	10916
681.346	10873
681.397	10861
681.449	10884
681.501	10924
681.552	10975
681.604	10955
681.656	10997
681.707	11052
681.759	10997
681.81	10924
681.862	10976
681.914	10999
681.965	10897
682.017	10932
682.069	10936
682.12	10997
682.172	10953
682.224	10976
682.275	11003
682.327	11086
682.379	10994
682.43	11000
682.482	10990
682.533	11051
682.585	11011
682.637	10992
682.688	11071
682.74	10975
682.792	10976
682.843	11058
682.895	11054
682.947	10913
682.998	11025
683.05	11103
683.102	10975
683.153	11098
683.205	11031
683.256	11024
683.308	11136
683.36	11085
683.411	11135
683.463	11084
683.515	11046
683.566	11066
683.618	11045
683.669	11070
683.721	11045
683.773	11014
683.824	11045
683.876	11019
683.928	10928
683.979	11028
684.031	11122
684.082	11046
684.134	10994
684.186	11027
684.237	11093
684.289	10950
684.341	11031
684.392	10948
684.444	11093
684.495	11023
684.547	10966
684.599	10953
684.65	10946
684.702	10974
684.754	11057
684.805	10984
684.857	10987
684.908	10975
684.96	10922
685.012	11039
685.063	10933
685.115	10937
685.166	10944
685.218	10842
685.27	10835
685.321	10825
685.373	10826
685.424	10803
685.476	10914
685.528	10844
685.579	10928
685.631	10884
685.683	10817
685.734	10978
685.786	10862
685.837	10900
685.889	10878
685.941	10849
685.992	10856
686.044	10934
686.095	10883
686.147	10787
686.199	10836
686.25	10786
686.302	10868
686.353	10859
686.405	10818
686.457	10805
686.508	10921
686.56	10770
686.611	10733
686.663	10741
686.715	10709
686.766	10707
686.818	10781
686.869	10799
686.921	10764
686.973	10813
687.024	10776
687.076	10836
687.127	10756
687.179	10774
687.231	10729
687.282	10783
687.334	10837
687.385	10844
687.437	10771
687.489	10717
687.54	10773
687.592	10850
687.643	10784
687.695	10788
687.747	10725
687.798	10714
687.85	10771
687.901	10800
687.953	10725
688.004	10677
688.056	10774
688.108	10758
688.159	10793
688.211	10674
688.262	10752
688.314	10726
688.366	10727
688.417	10759
688.469	10782
688.52	10711
688.572	10715
688.623	10772
688.675	10732
688.727	10728
688.778	10690
688.83	10792
688.881	10759
688.933	10757
688.984	10719
689.036	10718
689.088	10652
689.139	10681
689.191	10790
689.242	10727
689.294	10635
689.346	10646
689.397	10701
689.449	10736
689.5	10717
689.552	10655
689.603	10634
689.655	10712
689.706	10658
689.758	10778
689.81	10586
689.861	10686
689.913	10745
689.964	10686
690.016	10662
690.067	10687
690.119	10570
690.171	10687
690.222	10625
690.274	10641
690.325	10669
690.377	10689
690.428	10667
690.48	10532
690.531	10589
690.583	10636
690.635	10600
690.686	10592
690.738	10588
690.789	10544
690.841	10522
690.892	10542
690.944	10586
690.996	10456
691.047	10472
691.099	10484
691.15	10613
691.202	10485
691.253	10556
691.305	10589
691.356	10559
691.408	10461
691.459	10403
691.511	10529
691.563	10499
691.614	10450
691.666	10519
691.717	10463
691.769	10560
691.82	10498
691.872	10424
691.923	10502
691.975	10418
692.026	10495
692.078	10448
692.13	10482
692.181	10445
692.233	10406
692.284	10360
692.336	10347
692.387	10449
692.439	10450
692.49	10387
692.542	10365
692.593	10369
692.645	10328
692.697	10282
692.748	10311
692.8	10354
692.851	10323
692.903	10370
692.954	10302
693.006	10299
693.057	10363
693.109	10273
693.16	10357
693.212	10272
693.263	10295
693.315	10276
693.366	10261
693.418	10239
693.47	10246
693.521	10283
693.573	10198
693.624	10250
693.676	10275
693.727	10305
693.779	10207
693.83	10217
693.882	10267
693.933	10237
693.985	10340
694.036	10328
694.088	10253
694.139	10312
694.191	10278
694.242	10206
694.294	10233
694.345	10252
694.397	10193
694.448	10244
694.5	10209
694.552	10181
694.603	10151
694.655	10174
694.706	10269
694.758	10222
694.809	10190
694.861	10160
694.912	10076
694.964	10144
695.015	10145
695.067	10297
695.118	10141
695.17	10157
695.221	10100
695.273	10218
695.324	10169
695.376	10159
695.427	10078
695.479	10122
695.53	10199
695.582	10135
695.633	10169
695.685	10137
695.736	10092
695.788	10055
695.839	10156
695.891	10033
695.942	10196
695.994	10051
696.045	10082
696.097	10110
696.148	10111
696.2	9974
696.251	10124
696.303	10068
696.354	10021
696.406	10051
696.457	10055
696.509	10060
696.56	10014
696.612	10069
696.663	10040
696.715	9955
696.766	10020
696.818	9977
696.869	10003
696.921	10011
696.972	9985
697.024	10036
697.075	10001
697.127	9999
697.178	10008
697.23	9900
697.281	9841
697.333	9946
697.384	9875
697.436	9931
697.487	9905
697.539	9900
697.59	9792
697.642	9841
697.693	9872
697.745	9839
697.796	9837
697.847	9867
697.899	9853
697.95	9820
698.002	9873
698.053	9894
698.105	9765
698.156	9767
698.208	9724
698.259	9815
698.311	9850
698.362	9771
698.414	9713
698.465	9752
698.517	9706
698.568	9641
698.62	9675
698.671	9758
698.723	9781
698.774	9615
698.826	9660
698.877	9611
698.928	9636
698.98	9750
699.031	9601
699.083	9662
699.134	9650
699.186	9575
699.237	9703
699.289	9704
699.34	9652
699.392	9608
699.443	9555
699.495	9592
699.546	9591
699.598	9585
699.649	9586
699.7	9563
699.752	9536
699.803	9562
699.855	9517
699.906	9544
699.958	9552
700.009	9490
700.061	9595
700.112	9631
700.164	9533
700.215	9602
700.266	9520
700.318	9559
700.369	9590
700.421	9557
700.472	9554
700.524	9506
700.575	9547
700.627	9574
700.678	9592
700.73	9616
700.781	9599
700.832	9510
700.884	9486
700.935	9529
700.987	9410
701.038	9574
701.09	9587
701.141	9534
701.193	9547
701.244	9535
701.295	9539
701.347	9551
701.398	9472
701.45	9555
701.501	9527
701.553	9577
701.604	9471
701.656	9607
701.707	9455
701.758	9550
701.81	9517
701.861	9536
701.913	9568
701.964	9541
702.016	9495
702.067	9475
702.119	9485
702.17	9542
702.221	9476
702.273	9493
702.324	9494
702.376	9565
702.427	9575
702.479	9585
702.53	9574
702.581	9591
702.633	9620
702.684	9521
702.736	9535
702.787	9492
702.839	9542
702.89	9447
702.941	9494
702.993	9525
703.044	9491
703.096	9568
703.147	9549
703.199	9432
703.25	9529
703.301	9578
703.353	9468
703.404	9488
703.456	9459
703.507	9492
703.558	9478
703.61	9547
703.661	9458
703.713	9462
703.764	9460
703.816	9445
703.867	9465
703.918	9465
703.97	9395
704.021	9407
704.073	9525
704.124	9526
704.175	9481
704.227	9398
704.278	9487
704.33	9521
704.381	9382
704.432	9480
704.484	9391
704.535	9359
704.587	9361
704.638	9472
704.69	9388
704.741	9363
704.792	9338
704.844	9356
704.895	9395
704.947	9356
704.998	9304
705.049	9417
705.101	9383
705.152	9392
705.204	9337
705.255	9271
705.306	9329
705.358	9243
705.409	9299
705.461	9226
705.512	9248
705.563	9305
705.615	9303
705.666	9270
705.718	9284
705.769	9190
705.82	9221
705.872	9213
705.923	9231
705.974	9194
706.026	9201
706.077	9168
706.129	9152
706.18	9132
706.231	9200
706.283	9080
706.334	9146
706.386	9129
706.437	9132
706.488	9075
706.54	9185
706.591	9083
706.643	9138
706.694	9164
706.745	9071
706.797	9049
706.848	9129
706.899	9060
706.951	8979
707.002	8956
707.054	8991
707.105	9023
707.156	8968
707.208	9023
707.259	9102
707.31	8999
707.362	9000
707.413	8957
707.465	8997
707.516	8951
707.567	8910
707.619	9008
707.67	9011
707.721	8925
707.773	8967
707.824	8932
707.876	8857
707.927	8948
707.978	8913
708.03	8916
708.081	8882
708.132	8915
708.184	8851
708.235	8948
708.287	8872
708.338	8879
708.389	8891
708.441	8941
708.492	8860
708.543	8898
708.595	8803
708.646	8865
708.697	8779
708.749	8919
708.8	8809
708.852	8890
708.903	8790
708.954	8885
709.006	8847
709.057	8823
709.108	8848
709.16	8849
709.211	8842
709.262	8831
709.314	8775
709.365	8807
709.416	8792
709.468	8748
709.519	8861
709.57	8786
709.622	8817
709.673	8799
709.725	8845
709.776	8744
709.827	8794
709.879	8842
709.93	8718
709.981	8802
710.033	8759
710.084	8759
710.135	8668
710.187	8736
710.238	8715
710.289	8763
710.341	8742
710.392	8787
710.443	8757
710.495	8803
710.546	8695
710.597	8704
710.649	8686
710.7	8696
710.751	8560
710.803	8665
710.854	8662
710.905	8627
710.957	8689
711.008	8699
711.059	8712
711.111	8738
711.162	8649
711.213	8669
711.265	8703.77
711.316	8665.59
711.367	8690.04
711.419	8666.43
711.47	8593.89
711.521	8629.42
711.573	8662.22
711.624	8653.26
711.675	8607.81
711.727	8670.03
711.778	8609.12
711.829	8673.7
711.881	8590.44
711.932	8590.39
711.983	8626.12
712.035	8622.28
712.086	8595.35
712.137	8553.93
712.189	8554.91
712.24	8543.22
712.291	8517.07
712.343	8470.59
712.394	8550.32
712.445	8517.19
712.496	8543.45
712.548	8526.6
712.599	8503.14
712.65	8472.08
712.702	8469.88
712.753	8487.45
712.804	8417.47
712.856	8498.45
712.907	8431.1
712.958	8458.37
713.01	8427.05
713.061	8433.7
713.112	8368.91
713.164	8360.18
713.215	8441.7
713.266	8410.39
713.317	8350.93
713.369	8325
713.42	8357.17
713.471	8343.21
713.523	8353.12
713.574	8339
713.625	8345.28
713.677	8341.47
713.728	8331.47
713.779	8304.7
713.831	8300.72
713.882	8275.87
713.933	8260.14
713.984	8285.99
714.036	8314.21
714.087	8359.92
714.138	8331.89
714.19	8226.43
714.241	8199.15
714.292	8163.82
714.343	8170.71
714.395	8131.59
714.446	8175.04
714.497	8169.35
714.549	8179.25
714.6	8155.69
714.651	8140.65
714.703	8137.35
714.754	8122.79
714.805	8145.14
714.856	8152.46
714.908	8151.42
714.959	8093.3
715.01	8050.23
715.062	8053.38
715.113	8115.97
715.164	8085.55
715.215	8062.41
715.267	8028.15
715.318	8089.41
715.369	8063.87
715.421	8043.24
715.472	8057.17
715.523	8022.93
715.574	8010.25
715.626	7998.77
715.677	8051.28
715.728	8060.97
715.779	8011.87
715.831	7997.9
715.882	7963.24
715.933	7982.78
715.985	8011.69
716.036	7959.16
716.087	7985.96
716.138	7937.01
716.19	7894.6
716.241	7981.34
716.292	7963.14
716.343	7940.96
716.395	7900.58
716.433	7929
716.485	7933
716.536	8000
716.588	7900
716.639	7887
716.691	7856
716.742	7909
716.794	7892
716.845	7861
716.897	7850
716.948	7862
717	7858
717.052	7878
717.103	7767
717.155	7784
717.206	7795
717.258	7830
717.309	7822
717.361	7853
717.412	7788
717.464	7868
717.515	7820
717.567	7814
717.618	7741
717.67	7842
717.721	7799
717.773	7734
717.824	7763
717.876	7835
717.927	7748
717.979	7814
718.03	7626
718.082	7749
718.133	7762
718.185	7690
718.237	7741
718.288	7693
718.34	7716
718.391	7699
718.443	7672
718.494	7707
718.546	7706
718.597	7698
718.649	7729
718.7	7786
718.752	7663
718.803	7706
718.855	7629
718.906	7641
718.958	7633
719.009	7672
719.061	7679
719.112	7590
719.164	7638
719.215	7545
719.267	7603
719.318	7550
719.37	7485
719.421	7586
719.473	7577
719.524	7589
719.576	7480
719.627	7587
719.679	7513
719.73	7505
719.782	7596
719.833	7609
719.885	7514
719.936	7538
719.988	7475
720.039	7515
720.091	7455
720.142	7469
720.194	7430
720.245	7391
720.297	7388
720.348	7423
720.4	7438
720.451	7455
720.503	7416
720.554	7401
720.606	7393
720.657	7421
720.709	7452
720.76	7324
720.812	7390
720.863	7314
720.915	7344
720.966	7419
721.018	7493
721.069	7332
721.121	7246
721.172	7357
721.224	7271
721.275	7301
721.327	7256
721.378	7266
721.43	7230
721.481	7312
721.532	7231
721.584	7279
721.635	7229
721.687	7235
721.738	7235
721.79	7250
721.841	7232
721.893	7194
721.944	7183
721.996	7153
722.047	7156
722.099	7130
722.15	7144
722.202	7100
722.253	7167
722.305	7192
722.356	7108
722.408	7161
722.459	7076
722.511	7136
722.562	7120
722.614	7037
722.665	7093
722.716	7086
722.768	7083
722.819	7071
722.871	7093
722.922	7021
722.974	6982
723.025	6962
723.077	6987
723.128	7081
723.18	7001
723.231	7002
723.283	7048
723.334	7008
723.386	6956
723.437	6923
723.488	6948
723.54	6964
723.591	6897
723.643	6917
723.694	6867
723.746	6905
723.797	6911
723.849	6883
723.9	6868
723.952	6935
724.003	6889
724.055	6915
724.106	6893
724.157	6892
724.209	6877
724.26	6859
724.312	6818
724.363	6893
724.415	6805
724.466	6852
724.518	6803
724.569	6836
724.621	6754
724.672	6836
724.723	6820
724.775	6748
724.826	6791
724.878	6797
724.929	6807
724.981	6750
725.032	6723
725.084	6766
725.135	6742
725.187	6798
725.238	6711
725.289	6791
725.341	6783
725.392	6713
725.444	6683
725.495	6826
725.547	6759
725.598	6774
725.65	6717
725.701	6674
725.752	6719
725.804	6748
725.855	6648
725.907	6707
725.958	6670
726.01	6690
726.061	6647
726.112	6699
726.164	6686
726.215	6638
726.267	6653
726.318	6661
726.37	6602
726.421	6641
726.473	6642
726.524	6565
726.575	6677
726.627	6579
726.678	6599
726.73	6506
726.781	6569
726.833	6499
726.884	6549
726.935	6606
726.987	6514
727.038	6513
727.09	6582
727.141	6567
727.193	6478
727.244	6513
727.295	6473
727.347	6474
727.398	6464
727.45	6489
727.501	6558
727.552	6483
727.604	6474
727.655	6487
727.707	6393
727.758	6417
727.81	6432
727.861	6452
727.912	6439
727.964	6421
728.015	6355
728.067	6353
728.118	6398
728.17	6384
728.221	6338
728.272	6338
728.324	6323
728.375	6377
728.427	6372
728.478	6283
728.529	6385
728.581	6344
728.632	6286
728.684	6222
728.735	6224
728.786	6226
728.838	6254
728.889	6321
728.941	6211
728.992	6230
729.044	6226
729.095	6147
729.146	6152
729.198	6236
729.249	6103
729.301	6133
729.352	6133
729.403	6123
729.455	6150
729.506	6117
729.558	6085
729.609	6053
729.66	6125
729.712	6087
729.763	6121
729.815	6078
729.866	6041
729.917	6078
729.969	6059
730.02	5995
730.072	6034
730.123	5989
730.174	5992
730.226	6055
730.277	6006
730.329	5997
730.38	5943
730.431	5943
730.483	5938
730.534	5972
730.586	6014
730.637	5970
730.688	5949
730.74	5902
730.791	5914
730.842	5984
730.894	5882
730.945	5865
730.997	5951
731.048	5907
731.099	5869
731.151	5970
731.202	5940
731.254	5878
731.305	5891
731.356	5786
731.408	5909
731.459	5841
731.51	5821
731.562	5933
731.613	5881
731.665	5881
731.716	5894
731.767	5815
731.819	5861
731.87	5844
731.922	5844
731.973	5858
732.024	5816
732.076	5764
732.127	5784
732.178	5828
732.23	5847
732.281	5737
732.333	5790
732.384	5805
732.435	5741
732.487	5711
732.538	5762
732.589	5769
732.641	5770
732.692	5735
732.744	5765
732.795	5769
732.846	5806
732.898	5676
732.949	5723
733	5687
733.052	5735
733.103	5749
733.154	5705
733.206	5728
733.257	5752
733.309	5687
733.36	5725
733.411	5706
733.463	5660
733.514	5670
733.565	5708
733.617	5749
733.668	5677
733.719	5714
733.771	5701
733.822	5665
733.873	5694
733.925	5665
733.976	5617
734.028	5681
734.079	5747
734.13	5637
734.182	5663
734.233	5722
734.284	5684
734.336	5632
734.387	5658
734.438	5612
734.49	5661
734.541	5599
734.592	5664
734.644	5618
734.695	5740
734.747	5632
734.798	5605
734.849	5692
734.901	5581
734.952	5655
735.003	5686
735.055	5620
735.106	5660
735.157	5615
735.209	5601
735.26	5653
735.311	5588
735.363	5596
735.414	5605
735.465	5592
735.517	5581
735.568	5593
735.619	5604
735.671	5587
735.722	5557
735.773	5562
735.825	5623
735.876	5588
735.927	5621
735.979	5572
736.03	5643
736.081	5499
736.133	5554
736.184	5573
736.235	5510
736.287	5620
736.338	5633
736.389	5587
736.441	5560
736.492	5584
736.543	5549
736.595	5573
736.646	5616
736.697	5652
736.749	5543
736.8	5552
736.851	5558
736.903	5599
736.954	5581
737.005	5639
737.057	5642
737.108	5575
737.159	5590
737.211	5590
737.262	5630
737.313	5643
737.365	5624
737.416	5561
737.467	5593
737.518	5639
737.57	5618
737.621	5639
737.672	5628
737.724	5584
737.775	5583
737.826	5624
737.878	5603
737.929	5611
737.98	5603
738.032	5616
738.083	5617
738.134	5627
738.186	5647
738.237	5547
738.288	5595
738.339	5648
738.391	5588
738.442	5600
738.493	5651
738.545	5658
738.596	5588
738.647	5617
738.699	5557
738.75	5669
738.801	5607
738.853	5560
738.904	5549
738.955	5513
739.006	5533
739.058	5543
739.109	5562
739.16	5586
739.212	5539
739.263	5485
739.314	5552
739.366	5489
739.417	5520
739.468	5501
739.519	5496
739.571	5506
739.622	5541
739.673	5403
739.725	5454
739.776	5467
739.827	5429
739.878	5443
739.93	5449
739.981	5422
740.032	5438
740.084	5386
740.135	5344
740.186	5335
740.237	5461
740.289	5293
740.34	5376
740.391	5351
740.443	5296
740.494	5343
740.545	5326
740.596	5345
740.648	5262
740.699	5287
740.75	5287
740.802	5269
740.853	5247
740.904	5329
740.956	5227
741.007	5339
741.058	5273
741.109	5284
741.161	5324
741.212	5253
741.263	5224
741.314	5240
741.366	5251
741.417	5251
741.468	5248
741.52	5233
741.571	5168
741.622	5196
741.673	5141
741.725	5234
741.776	5173
741.827	5195
741.878	5227
741.93	5176
741.981	5187
742.032	5164
742.083	5131
742.135	5112
742.186	5125
742.237	5126
742.289	5127
742.34	5113
742.391	5122
742.442	5040
742.494	5146
742.545	5090
742.596	5051
742.647	5080
742.699	5062
742.75	5062
742.801	5043
742.852	5067
742.904	5091
742.955	5092
743.006	5037
743.057	5046
743.109	5018
743.16	4983
743.211	5004
743.263	4975
743.314	5025
743.365	4951
743.416	5001
743.468	5011
743.519	4969
743.57	4944
743.621	4987
743.672	4985
743.724	4897
743.775	5038
743.826	4994
743.878	4948
743.929	4913
743.98	4983
744.031	4929
744.083	4867
744.134	4958
744.185	4883
744.236	4876
744.287	4921
744.339	4884
744.39	4905
744.441	4838
744.492	4885
744.544	4882
744.595	4892
744.646	4874
744.697	4856
744.749	4854
744.8	4895
744.851	4855
744.902	4836
744.954	4840
745.005	4845
745.056	4830
745.107	4817
745.159	4833
745.21	4789
745.261	4812
745.312	4792
745.363	4803
745.415	4820
745.466	4795
745.517	4750
745.568	4792
745.62	4807
745.671	4784
745.722	4814
745.773	4832
745.824	4837
745.876	4740
745.927	4777
745.978	4739
746.029	4690
746.081	4772
746.132	4802
746.183	4730
746.234	4755
746.285	4717
746.337	4727
746.388	4694
746.439	4734
746.49	4718
746.542	4706
746.593	4701
746.644	4712
746.695	4673
746.746	4708
746.798	4646
746.849	4619
746.9	4662
746.951	4735
747.003	4761
747.054	4618
747.105	4697
747.156	4655
747.207	4673
747.259	4651
747.31	4676
747.361	4615
747.412	4732
747.463	4662
747.515	4621
747.566	4673
747.617	4587
747.668	4622
747.719	4602
747.771	4587
747.822	4578
747.873	4611
747.924	4625
747.975	4568
748.027	4561
748.078	4589
748.129	4583
748.18	4614
748.231	4575
748.283	4619
748.334	4542
748.385	4551
748.436	4536
748.487	4535
748.539	4527
748.59	4523
748.641	4543
748.692	4558
748.743	4563
748.795	4492
748.846	4596
748.897	4503
748.948	4583
748.999	4485
749.05	4530
749.102	4566
749.153	4478
749.204	4528
749.255	4543
749.306	4492
749.358	4495
749.409	4464
749.46	4518
749.511	4466
749.562	4457
749.614	4481
749.665	4502
749.716	4489
749.767	4536
749.818	4461
749.869	4519
749.921	4477
749.972	4465
750.023	4501
750.074	4462
750.125	4500
750.177	4418
750.228	4434
750.279	4409
750.33	4402
750.381	4454
750.432	4384
750.484	4383
750.535	4400
750.586	4458
750.637	4391
750.688	4395
750.739	4403
750.791	4408
750.842	4398
750.893	4365
750.944	4419
750.995	4359
751.046	4380
751.098	4329
751.149	4389
751.2	4349
751.251	4342
751.302	4367
751.353	4387
751.404	4322
751.456	4341
751.507	4285
751.558	4355
751.609	4283
751.66	4291
751.711	4288
751.763	4323
751.814	4294
751.865	4308
751.916	4232
751.967	4316
752.018	4175
752.07	4312
752.121	4315
752.172	4332
752.223	4237
752.274	4267
752.325	4244
752.376	4255
752.428	4175
752.479	4217
752.53	4290
752.581	4225
752.632	4166
752.683	4211
752.734	4225
752.786	4177
752.837	4175
752.888	4196
752.939	4207
752.99	4211
753.041	4189
753.092	4160
753.144	4193
753.195	4164
753.246	4208
753.297	4106
753.348	4134
753.399	4164
753.45	4148
753.502	4176
753.553	4164
753.604	4152
753.655	4177
753.706	4149
753.757	4123
753.808	4099
753.859	4114
753.911	4117
753.962	4116
754.013	4092
754.064	4066
754.115	4085
754.166	4135
754.217	4082
754.269	4084
754.32	4062
754.371	4058
754.422	4046
754.473	4111
754.524	4077
754.575	4065
754.626	4047
754.678	4077
754.729	4016
754.78	4029
754.831	3997
754.882	4014
754.933	3995
754.984	3988
755.035	4013
755.086	4008
755.138	4001
755.189	4008
755.24	4022
755.291	3918
755.342	3977
755.393	3959
755.444	4063
755.495	3958
755.547	3967
755.598	3932
755.649	3946
755.7	3942
755.751	3913
755.802	3975
755.853	3975
755.904	3927
755.955	3921
756.006	3940
756.058	3926
756.109	3929
756.16	3906
756.211	3868
756.262	3873
756.313	3918
756.364	3875
756.415	3814
756.466	3898
756.518	3883
756.569	3889
756.62	3913
756.671	3886
756.722	3862
756.773	3887
756.824	3834
756.875	3888
756.926	3818
756.977	3879
757.029	3803
757.08	3866
757.131	3871
757.182	3831
757.233	3859
757.284	3806
757.335	3862
757.386	3866
757.437	3777
757.488	3863
757.539	3838
757.59	3791
757.642	3790
757.693	3832
757.744	3816
757.795	3772
757.846	3817
757.897	3808
757.948	3755
757.999	3710
758.05	3769
758.101	3749
758.152	3798
758.203	3739
758.255	3745
758.306	3675
758.357	3728
758.408	3761
758.459	3752
758.51	3783.93
758.561	3734.79
758.612	3721.49
758.663	3725.16
758.714	3744.82
758.765	3671.66
758.816	3677.25
758.867	3682.2
758.919	3720.74
758.97	3720.85
759.021	3698.86
759.072	3723.18
759.123	3690.54
759.174	3705.68
759.225	3687.92
759.276	3690
759.327	3717.41
759.378	3659.09
759.429	3635.68
759.48	3687.82
759.531	3679.4
759.582	3671.91
759.633	3655.52
759.685	3603.75
759.736	3623.95
759.787	3666.57
759.838	3652.84
759.889	3620.54
759.94	3633.84
759.991	3642.69
760.042	3612.56
760.093	3603.27
760.144	3634.01
760.195	3599.53
760.246	3606.04
760.297	3597.33
760.348	3560.83
760.399	3603.81
760.45	3586.23
760.501	3614.52
760.552	3575.52
760.603	3548.52
760.655	3574.25
760.706	3565.03
760.757	3527.83
760.808	3516.78
760.859	3534.61
760.91	3527.94
760.961	3542.39
761.012	3542.92
761.063	3534.89
761.114	3517.09
761.165	3512.39
761.216	3522.88
761.267	3483.62
761.318	3532.91
761.369	3496.21
761.42	3479.15
761.471	3476.33
761.522	3495.65
761.573	3488.9
761.624	3472.41
761.675	3475.03
761.726	3455.59
761.777	3505.94
761.828	3495.04
761.88	3464.93
761.931	3473.93
761.982	3502.91
762.033	3500.23
762.084	3481.57
762.135	3422.44
762.186	3488.72
762.237	3465.38
762.288	3446.99
762.339	3436.61
762.39	3445.41
762.441	3452.04
762.492	3394.42
762.543	3412.03
762.594	3414.38
762.645	3396.02
762.696	3399.31
762.747	3419.09
762.798	3428.21
762.849	3384.89
762.9	3368.15
762.951	3402.25
763.002	3383.76
763.053	3389.19
763.104	3371.29
763.155	3383.03
763.206	3376.5
763.257	3352.27
763.308	3365.87
763.359	3370.91
763.41	3360.65
763.461	3371.26
763.512	3353.09
763.563	3316.54
763.614	3349.21
763.665	3340.85
763.678	3334
763.729	3347
763.78	3317
763.832	3320
763.883	3277
763.934	3229
763.986	3297
764.037	3307
764.088	3278
764.139	3328
764.191	3293
764.242	3322
764.293	3279
764.345	3295
764.396	3237
764.447	3253
764.498	3278
764.55	3287
764.601	3284
764.652	3294
764.704	3269
764.755	3258
764.806	3216
764.857	3191
764.909	3259
764.96	3273
765.011	3246
765.062	3218
765.114	3273
765.165	3236
765.216	3208
765.268	3206
765.319	3170
765.37	3213
765.421	3207
765.473	3223
765.524	3215
765.575	3187
765.626	3194
765.678	3233
765.729	3154
765.78	3192
765.831	3215
765.883	3175
765.934	3151
765.985	3148
766.036	3151
766.088	3195
766.139	3145
766.19	3154
766.242	3153
766.293	3116
766.344	3107
766.395	3145
766.447	3168
766.498	3101
766.549	3132
766.6	3106
766.652	3117
766.703	3160
766.754	3154
766.805	3117
766.857	3120
766.908	3132
766.959	3096
767.01	3116
767.062	3065
767.113	3068
767.164	3086
767.215	3144
767.267	3083
767.318	3049
767.369	3068
767.42	3044
767.472	3027
767.523	3045
767.574	3021
767.625	3018
767.677	3037
767.728	3048
767.779	3033
767.83	2999
767.882	3055
767.933	3004
767.984	3042
768.035	3032
768.087	3053
768.138	3027
768.189	3021
768.24	3010
768.292	3047
768.343	2985
768.394	3003
768.445	2963
768.497	2919
768.548	3004
768.599	2937
768.65	2998
768.701	2987
768.753	2954
768.804	2952
768.855	2931
768.906	2952
768.958	2937
769.009	2907
769.06	2941
769.111	2946
769.163	2920
769.214	2937
769.265	2917
769.316	2884
769.367	2943
769.419	2925
769.47	2869
769.521	2861
769.572	2880
769.624	2912
769.675	2858
769.726	2899
769.777	2807
769.828	2846
769.88	2919
769.931	2851
769.982	2923
770.033	2900
770.085	2857
770.136	2836
770.187	2886
770.238	2885
770.289	2842
770.341	2841
770.392	2790
770.443	2854
770.494	2806
770.546	2847
770.597	2832
770.648	2779
770.699	2784
770.75	2798
770.802	2815
770.853	2807
770.904	2772
770.955	2764
771.006	2782
771.058	2755
771.109	2796
771.16	2768
771.211	2795
771.263	2789
771.314	2786
771.365	2785
771.416	2781
771.467	2735
771.519	2776
771.57	2756
771.621	2732
771.672	2735
771.723	2730
771.775	2742
771.826	2728
771.877	2706
771.928	2716
771.979	2729
772.031	2668
772.082	2683
772.133	2731
772.184	2699
772.235	2666
772.287	2700
772.338	2656
772.389	2654
772.44	2691
772.491	2686
772.543	2663
772.594	2697
772.645	2676
772.696	2673
772.747	2649
772.799	2643
772.85	2626
772.901	2660
772.952	2662
773.003	2660
773.055	2647
773.106	2584
773.157	2626
773.208	2592
773.259	2573
773.31	2615
773.362	2643
773.413	2611
773.464	2593
773.515	2577
773.566	2596
773.618	2612
773.669	2554
773.72	2593
773.771	2576
773.822	2582
773.873	2565
773.925	2570
773.976	2554
774.027	2560
774.078	2553
774.129	2518
774.18	2559
774.232	2532
774.283	2540
774.334	2602
774.385	2565
774.436	2526
774.488	2553
774.539	2517
774.59	2516
774.641	2519
774.692	2546
774.743	2526
774.795	2507
774.846	2539
774.897	2504
774.948	2535
774.999	2501
775.05	2499
775.102	2472
775.153	2488
775.204	2486
775.255	2457
775.306	2481
775.357	2496
775.409	2465
775.46	2451
775.511	2472
775.562	2452
775.613	2456
775.664	2446
775.716	2478
775.767	2459
775.818	2406
775.869	2420
775.92	2419
775.971	2419
776.023	2451
776.074	2441
776.125	2394
776.176	2477
776.227	2431
776.278	2413
776.329	2416
776.381	2428
776.432	2433
776.483	2395
776.534	2427
776.585	2428
776.636	2375
776.688	2384
776.739	2373
776.79	2401
776.841	2368
776.892	2408
776.943	2372
776.994	2376
777.046	2391
777.097	2328
777.148	2382
777.199	2344
777.25	2331
777.301	2372
777.352	2315
777.404	2334
777.455	2324
777.506	2283
777.557	2263
777.608	2342
777.659	2301
777.71	2266
777.762	2302
777.813	2341
777.864	2294
777.915	2292
777.966	2319
778.017	2301
778.068	2274
778.12	2296
778.171	2261
778.222	2296
778.273	2313
778.324	2246
778.375	2267
778.426	2231
778.477	2221
778.529	2257
778.58	2258
778.631	2267
778.682	2271
778.733	2241
778.784	2279
778.835	2235
778.886	2210
778.938	2229
778.989	2243
779.04	2258
779.091	2269
779.142	2234
779.193	2198
779.244	2245
779.295	2204
779.347	2202
779.398	2227
779.449	2219
779.5	2219
779.551	2200
779.602	2242
779.653	2217
779.704	2150
779.755	2172
779.807	2224
779.858	2212
779.909	2186
779.96	2196
780.011	2166
780.062	2200
780.113	2188
780.164	2195
780.216	2143
780.267	2163
780.318	2173
780.369	2134
780.42	2175
780.471	2148
780.522	2116
780.573	2139
780.624	2178
780.675	2144
780.727	2150
780.778	2116
780.829	2117
780.88	2161
780.931	2103
780.982	2181
781.033	2152
781.084	2110
781.135	2103
781.187	2130
781.238	2152
781.289	2152
781.34	2064
781.391	2090
781.442	2091
781.493	2083
781.544	2099
781.595	2073
781.646	2106
781.698	2054
781.749	2063
781.8	2090
781.851	2042
781.902	2110
781.953	2060
782.004	2057
782.055	2039
782.106	2051
782.157	2067
782.208	2050
782.26	2062
782.311	2017
782.362	2056
782.413	2066
782.464	2052
782.515	2009
782.566	2038
782.617	2033
782.668	1969
782.719	2045
782.77	2010
782.821	2044
782.872	2025
782.924	1981
782.975	2049
783.026	2023
783.077	1997
783.128	2041
783.179	2013
783.23	1967
783.281	2005
783.332	1973
783.383	1998
783.434	1985
783.485	1956
783.536	1986
783.588	1983
783.639	1966
783.69	1979
783.741	1968
783.792	1952
783.843	1992
783.894	1925
783.945	1965
783.996	1952
784.047	1955
784.098	1946
784.149	1954
784.2	1924
784.252	1906
784.303	1905
784.354	1901
784.405	1979
784.456	1940
784.507	1937
784.558	1952
784.609	1955
784.66	1925
784.711	1917
784.762	1905
784.813	1878
784.864	1906
784.915	1854
784.966	1871
785.017	1854
785.068	1873
785.12	1894
785.171	1899
785.222	1857
785.273	1905
785.324	1884
785.375	1847
785.426	1884
785.477	1883
785.528	1884
785.579	1827
785.63	1861
785.681	1828
785.732	1855
785.783	1849
785.834	1849
785.885	1854
785.936	1829
785.987	1840
786.038	1796
786.089	1821
786.141	1825
786.192	1827
786.243	1817
786.294	1796
786.345	1827
786.396	1837
786.447	1804
786.498	1818
786.549	1777
786.6	1793
786.651	1789
786.702	1797
786.753	1777
786.804	1806
786.855	1800
786.906	1782
786.957	1792
787.008	1839
787.059	1813
787.11	1788
787.161	1777
787.212	1761
787.263	1764
787.314	1785
787.365	1755
787.416	1765
787.467	1784
787.518	1775
787.57	1748
787.621	1757
787.672	1737
787.723	1741
787.774	1757
787.825	1754
787.876	1739
787.927	1769
787.978	1751
788.029	1734
788.08	1701
788.131	1720
788.182	1746
788.233	1742
788.284	1710
788.335	1695
788.386	1707
788.437	1720
788.488	1691
788.539	1737
788.59	1714
788.641	1705
788.692	1733
788.743	1676
788.794	1698
788.845	1691
788.896	1704
788.947	1665
788.998	1704
789.049	1681
789.1	1691
789.151	1690
789.202	1665
789.253	1711
789.304	1672
789.355	1664
789.406	1677
789.457	1695
789.508	1647
789.559	1680
789.61	1676
789.661	1688
789.712	1646
789.763	1604
789.814	1661
789.865	1656
789.916	1646
789.967	1663
790.018	1636
790.069	1664
790.12	1657
790.171	1660
790.222	1646
790.273	1666
790.324	1577
790.375	1598
790.426	1614
790.477	1606
790.528	1609
790.579	1629
790.63	1608
790.681	1591
790.732	1596
790.783	1618
790.834	1619
790.885	1585
790.936	1613
790.987	1609
791.038	1591
791.089	1616
791.14	1599
791.191	1620
791.242	1597
791.293	1573
791.344	1573
791.395	1563
791.446	1575
791.497	1579
791.548	1557
791.599	1596
791.65	1551
791.701	1567
791.752	1575
791.803	1558
791.854	1563
791.905	1532
791.956	1522
792.007	1562
792.058	1570
792.109	1536
792.16	1563
792.211	1512
792.262	1517
792.313	1557
792.363	1504
792.414	1588
792.465	1511
792.516	1528
792.567	1556
792.618	1530
792.669	1537
792.72	1548
792.771	1547
792.822	1518
792.873	1514
792.924	1491
792.975	1485
793.026	1522
793.077	1492
793.128	1475
793.179	1486
793.23	1513
793.281	1491
793.332	1513
793.383	1498
793.434	1505
793.485	1506
793.536	1459
793.587	1484
793.638	1485
793.689	1491
793.74	1469
793.79	1489
793.841	1490
793.892	1485
793.943	1438
793.994	1462
794.045	1480
794.096	1479
794.147	1463
794.198	1461
794.249	1453
794.3	1438
794.351	1455
794.402	1447
794.453	1464
794.504	1449
794.555	1471
794.606	1429
794.657	1442
794.708	1414
794.758	1437
794.809	1436
794.86	1436
794.911	1423
794.962	1399
795.013	1409
795.064	1395
795.115	1422
795.166	1427
795.217	1421
795.268	1432
795.319	1394
795.37	1417
795.421	1371
795.472	1412
795.523	1419
795.573	1386
795.624	1410
795.675	1428
795.726	1402
795.777	1399
795.828	1371
795.879	1405
795.93	1378
795.981	1376
796.032	1379
796.083	1385
796.134	1403
796.185	1358
796.236	1362
796.286	1412
796.337	1359
796.388	1338
796.439	1363
796.49	1357
796.541	1379
796.592	1331
796.643	1358
796.694	1324
796.745	1392
796.796	1335
796.847	1342
796.897	1365
796.948	1351
796.999	1324
797.05	1327
797.101	1332
797.152	1370
797.203	1331
797.254	1340
797.305	1308
797.356	1304
797.407	1303
797.458	1359
797.508	1315
797.559	1292
797.61	1331
797.661	1309
797.712	1324
797.763	1308
797.814	1295
797.865	1309
797.916	1298
797.967	1305
798.018	1292
798.068	1293
798.119	1281
798.17	1308
798.221	1267
798.272	1269
798.323	1292
798.374	1297
798.425	1312
798.476	1268
798.526	1268
798.577	1251
798.628	1266
798.679	1257
798.73	1304
798.781	1307
798.832	1243
798.883	1239
798.934	1296
798.984	1253
799.035	1257
799.086	1220
799.137	1276
799.188	1265
799.239	1227
799.29	1235
799.341	1272
799.392	1246
799.443	1256
799.493	1242
799.544	1265
799.595	1232
799.646	1241
799.697	1212
799.748	1218
799.799	1230
799.85	1237
799.9	1228
799.951	1217
800.002	1201
800.053	1217
800.104	1209
800.155	1218
800.206	1199
800.257	1231
800.307	1187
800.358	1218
800.409	1204
800.46	1208
800.511	1191
800.562	1228
800.613	1190
800.664	1218
800.714	1222
800.765	1220
800.816	1210
800.867	1213
800.918	1193
800.969	1243
801.02	1195
801.07	1189
801.121	1188
801.172	1199
801.223	1177
801.274	1201
801.325	1159
801.376	1212
801.427	1142
801.477	1189
801.528	1167
801.579	1167
801.63	1189
801.681	1159
801.732	1185
801.783	1174
801.833	1190
801.884	1132
801.935	1161
801.986	1157
802.037	1152
802.088	1174
802.139	1149
802.189	1143
802.24	1144
802.291	1149
802.342	1146
802.393	1151
802.444	1137
802.495	1145
802.545	1152
802.596	1135
802.647	1135
802.698	1124
802.749	1152
802.8	1086
802.85	1120
802.901	1111
802.952	1093
803.003	1150
803.054	1126
803.105	1145
803.155	1093
803.206	1123
803.257	1129
803.308	1079
803.359	1122
803.41	1112
803.46	1119
803.511	1085
803.562	1084
803.613	1092
803.664	1098
803.715	1086
803.765	1103
803.816	1110
803.867	1103
803.918	1094
803.969	1097
804.02	1081
804.07	1085
804.121	1080
804.172	1049
804.223	1083
804.274	1084
804.325	1091
804.375	1078
804.426	1070
804.477	1094
804.528	1081
804.579	1071
804.63	1078
804.68	1084
804.731	1093
804.782	1080
804.833	1082
804.884	1074
804.934	1036
804.985	1042
805.036	1067
805.087	1078
805.138	1062
805.188	1058
805.239	1033
805.29	1066
805.341	1058
805.392	1038
805.443	1048
805.493	1056
805.544	1047.19
805.595	1064.84
805.646	1051.42
805.697	1018.7
805.747	1048.51
805.798	1046.68
805.849	1044.55
805.9	1060.34
805.951	1038.97
806.001	1020.64
806.052	1071.83
806.103	1035.52
806.154	1030.07
806.205	1032.94
806.255	1022.69
806.306	1042.75
806.357	1012.65
806.408	1024.05
806.459	1023
806.509	1028.14
806.56	1009.62
806.611	1026.57
806.662	1025.92
806.713	994.705
806.763	1048.55
806.814	1015.56
806.865	1024.01
806.916	1033.42
806.967	1006.48
807.017	993.129
807.068	999.081
807.119	992.429
807.17	1011.88
807.22	992.681
807.271	983.296
807.322	989.609
807.373	1003.5
807.424	992.814
807.474	999.842
807.525	991.765
807.576	984.239
807.627	981.73
807.678	989.682
807.728	983.156
807.779	989.978
807.83	1004.25
807.881	1004.26
807.931	984.98
807.982	984.848
808.033	975.513
808.084	994.902
808.135	966.651
808.185	986.17
808.236	990.674
808.287	981.345
808.338	963.268
808.388	964.296
808.439	976.234
808.49	961.372
808.541	972.419
808.591	946.286
808.642	963.929
808.693	959.385
808.744	950.598
808.795	973.924
808.845	963.555
808.896	963.211
808.947	955.339
808.998	947.824
809.048	947.877
809.099	957.307
809.15	953.849
809.201	951.491
809.251	946.143
809.302	951.389
809.353	956.446
809.404	951.807
809.454	942.698
809.505	934.776
809.556	945.778
809.607	931.056
809.658	918.264
809.708	939.505
809.759	927.833
809.81	944.5
809.861	935.443
809.911	913.661
809.962	921.17
810.013	921.632
810.064	926.403
810.114	937.734
810.165	940.971
810.216	942.839
810.267	935.205
810.317	938.591
810.368	915.238
810.419	921.491
810.469	927.766
810.52	923.457
810.571	913.504
810.622	919.181
810.627	920
810.678	931
810.729	936
810.78	901
810.831	947
810.882	931
810.933	889
810.984	906
811.035	899
811.086	890
811.137	886
811.188	897
811.239	908
811.29	895
811.341	896
811.392	882
811.443	898
811.494	879
811.545	887
811.596	895
811.648	883
811.699	868
811.75	877
811.801	906
811.852	879
811.903	871
811.954	878
812.005	861
812.056	884
812.107	874
812.158	880
812.209	858
812.26	862
812.311	875
812.362	869
812.413	875
812.464	849
812.515	897
812.566	867
812.617	860
812.668	858
812.719	861
812.77	861
812.821	837
812.872	845
812.923	857
812.974	852
813.025	880
813.076	844
813.127	849
813.178	843
813.229	863
813.28	818
813.331	843
813.382	839
813.433	823
813.484	845
813.535	870
813.586	834
813.637	857
813.688	855
813.739	808
813.79	861
813.841	824
813.892	838
813.943	803
813.994	822
814.045	834
814.096	827
814.147	828
814.198	837
814.249	866
814.3	821
814.351	849
814.402	844
814.453	800
814.504	828
814.555	816
814.606	831
814.657	796
814.708	817
814.759	813
814.81	815
814.861	811
814.912	817
814.963	835
815.014	819
815.065	815
815.116	771
815.167	797
815.217	834
815.268	797
815.319	789
815.37	803
815.421	780
815.472	788
815.523	795
815.574	790
815.625	788
815.676	788
815.727	777
815.778	786
815.829	796
815.88	786
815.931	778
815.982	781
816.033	797
816.084	789
816.135	803
816.186	782
816.237	792
816.288	798
816.339	768
816.39	782
816.441	776
816.492	765
816.543	762
816.594	793
816.645	790
816.696	767
816.747	778
816.798	763
816.849	773
816.9	764
816.951	773
817.001	770
817.052	770
817.103	767
817.154	757
817.205	766
817.256	757
817.307	752
817.358	739
817.409	762
817.46	750
817.511	775
817.562	759
817.613	779
817.664	751
817.715	732
817.766	753
817.817	726
817.868	748
817.919	768
817.97	753
818.021	744
818.071	753
818.122	730
818.173	727
818.224	749
818.275	751
818.326	734
818.377	725
818.428	726
818.479	723
818.53	741
818.581	762
818.632	734
818.683	717
818.734	748
818.785	719
818.836	750
818.887	734
818.938	708
818.988	717
819.039	744
819.09	723
819.141	729
819.192	700
819.243	710
819.294	702
819.345	725
819.396	682
819.447	729
819.498	714
819.549	704
819.6	698
819.651	718
819.702	732
819.753	687
819.803	704
819.854	726
819.905	716
819.956	698
820.007	706
820.058	691
820.109	713
820.16	697
820.211	709
820.262	703
820.313	725
820.364	696
820.415	688
820.465	710
820.516	699
820.567	682
820.618	686
820.669	687
820.72	697
820.771	682
820.822	678
820.873	693
820.924	683
820.975	692
821.026	668
821.076	672
821.127	681
821.178	698
821.229	688
821.28	671
821.331	673
821.382	684
821.433	661
821.484	694
821.535	672
821.586	663
821.637	670
821.687	650
821.738	688
821.789	675
821.84	658
821.891	663
821.942	669
821.993	668
822.044	668
822.095	659
822.146	668
822.196	659
822.247	672
822.298	668
822.349	649
822.4	666
822.451	641
822.502	675
822.553	648
822.604	646
822.655	662
822.706	666
822.756	634
822.807	649
822.858	667
822.909	658
822.96	652
823.011	647
823.062	647
823.113	657
823.164	635
823.214	652
823.265	633
823.316	667
823.367	620
823.418	652
823.469	641
823.52	641
823.571	636
823.622	622
823.672	626
823.723	655
823.774	613
823.825	665
823.876	629
823.927	606
823.978	626
824.029	612
824.08	605
824.13	621
824.181	630
824.232	638
824.283	635
824.334	615
824.385	632
824.436	648
824.487	602
824.537	620
824.588	615
824.639	616
824.69	622
824.741	604
824.792	625
824.843	609
824.893	603
824.944	626
824.995	619
825.046	616
825.097	637
825.148	628
825.199	614
825.25	607
825.3	590
825.351	633
825.402	607
825.453	593
825.504	598
825.555	599
825.606	598
825.657	597
825.707	607
825.758	614
825.809	594
825.86	598
825.911	606
825.962	599
826.013	607
826.063	605
826.114	611
826.165	613
826.216	610
826.267	603
826.318	603
826.369	598
826.419	604
826.47	570
826.521	595
826.572	575
826.623	583
826.674	577
826.725	598
826.775	583
826.826	587
826.877	594
826.928	583
826.979	581
827.03	596
827.08	593
827.131	581
827.182	594
827.233	569
827.284	571
827.335	546
827.386	593
827.436	605
827.487	599
827.538	565
827.589	557
827.64	588
827.691	595
827.741	570
827.792	569
827.843	590
827.894	574
827.945	566
827.996	577
828.046	565
828.097	571
828.148	562
828.199	545
828.25	599
828.301	589
828.351	568
828.402	557
828.453	574
828.504	554
828.555	571
828.606	547
828.656	574
828.707	569
828.758	546
828.809	572
828.86	562
828.911	559
828.961	548
829.012	565
829.063	573
829.114	559
829.165	540
829.216	539
829.266	558
829.317	567
829.368	542
829.419	563
829.47	552
829.52	554
829.571	547
829.622	547
829.673	544
829.724	546
829.774	558
829.825	544
829.876	543
829.927	535
829.978	522
830.029	555
830.079	545
830.13	536
830.181	536
830.232	531
830.283	550
830.333	539
830.384	544
830.435	547
830.486	538
830.537	536
830.587	536
830.638	532
830.689	530
830.74	544
830.791	537
830.841	528
830.892	551
830.943	527
830.994	541
831.045	523
831.095	527
831.146	527
831.197	531
831.248	545
831.299	528
831.349	546
831.4	538
831.451	519
831.502	539
831.553	515
831.603	522
831.654	535
831.705	535
831.756	506
831.807	530
831.857	516
831.908	527
831.959	534
832.01	518
832.061	509
832.111	534
832.162	514
832.213	514
832.264	520
832.315	531
832.365	521
832.416	544
832.467	495
832.518	509
832.568	522
832.619	518
832.67	503
832.721	503
832.772	520
832.822	516
832.873	499
832.924	516
832.975	521
833.025	514
833.076	496
833.127	514
833.178	504
833.229	505
833.279	493
833.33	511
833.381	500
833.432	494
833.482	491
833.533	505
833.584	501
833.635	493
833.685	503
833.736	499
833.787	498
833.838	507
833.889	505
833.939	486
833.99	500
834.041	480
834.092	482
834.142	515
834.193	500
834.244	513
834.295	503
834.345	496
834.396	484
834.447	483
834.498	498
834.548	500
834.599	488
834.65	497
834.701	483
834.751	484
834.802	496
834.853	499
834.904	498
834.954	509
835.005	503
835.056	476
835.107	472
835.157	454
835.208	486
835.259	474
835.31	491
835.36	462
835.411	462
835.462	485
835.513	463
835.563	491
835.614	496
835.665	486
835.716	469
835.766	466
835.817	462
835.868	458
835.919	479
835.969	484
836.02	460
836.071	477
836.122	456
836.172	474
836.223	469
836.274	468
836.325	453
836.375	450
836.426	481
836.477	486
836.528	472
836.578	474
836.629	473
836.68	462
836.73	467
836.781	455
836.832	474
836.883	472
836.933	468
836.984	484
837.035	469
837.086	452
837.136	458
837.187	458
837.238	478
837.288	468
837.339	451
837.39	445
837.441	457
837.491	471
837.542	472
837.593	441
837.643	445
837.694	458
837.745	448
837.796	472
837.846	450
837.897	457
837.948	445
837.999	442
838.049	445
838.1	456
838.151	446
838.201	456
838.252	456
838.303	446
838.354	458
838.404	443
838.455	467
838.506	466
838.556	473
838.607	442
838.658	469
838.708	444
838.759	442
838.81	458
838.861	449
838.911	435
838.962	447
839.013	442
839.063	443
839.114	441
839.165	441
839.216	451
839.266	436
839.317	427
839.368	443
839.418	450
839.469	456
839.52	419
839.57	449
839.621	425
839.672	420
839.722	427
839.773	430
839.824	432
839.875	444
839.925	434
839.976	428
840.027	420
840.077	439
840.128	435
840.179	430
840.229	435
840.28	428
840.331	404
840.381	434
840.432	432
840.483	419
840.534	442
840.584	422
840.635	447
840.686	408
840.736	435
840.787	427
840.838	420
840.888	444
840.939	419
840.99	426
841.04	403
841.091	414
841.142	436
841.192	446
841.243	430
841.294	421
841.344	430
841.395	402
841.446	422
841.496	406
841.547	400
841.598	421
841.648	408
841.699	416
841.75	420
841.8	413
841.851	430
841.902	432
841.952	424
842.003	397
842.054	416
842.104	420
842.155	424
842.206	419
842.256	412
842.307	406
842.358	422
842.408	398
842.459	435
842.51	407
842.56	421
842.611	418
842.662	409
842.712	423
842.763	418
842.814	408
842.864	406
842.915	394
842.966	415
843.016	407
843.067	407
843.118	424
843.168	397
843.219	411
843.269	415
843.32	405
843.371	404
843.421	390
843.472	401
843.523	410
843.573	398
843.624	390
843.675	394
843.725	394
843.776	405
843.827	398
843.877	405
843.928	390
843.979	392
844.029	412
844.08	395
844.13	406
844.181	399
844.232	377
844.282	401
844.333	388
844.384	386
844.434	390
844.485	396
844.536	373
844.586	396
844.637	394
844.687	376
844.738	396
844.789	372
844.839	394
844.89	391
844.941	397
844.991	403
845.042	373
845.092	376
845.143	392
845.194	383
845.244	396
845.295	374
845.346	384
845.396	382
845.447	380
845.497	391
845.548	390
845.599	393
845.649	389
845.7	386
845.75	387
845.801	385
845.852	398
845.902	383
845.953	409
846.004	384
846.054	380
846.105	381
846.155	390
846.206	380
846.257	359
846.307	379
846.358	387
846.409	380
846.459	372
846.51	362
846.56	374
846.611	392
846.661	387
846.712	357
846.763	377
846.813	383
846.864	370
846.915	373
846.965	376
847.016	379
847.066	390
847.117	368
847.168	363
847.218	383
847.269	379
847.319	357
847.37	374
847.421	368
847.471	373
847.522	362
847.572	367
847.623	364
847.674	381
847.724	370
847.775	387
847.825	360
847.876	387
847.926	360
847.977	370
848.028	361
848.078	357
848.129	362
848.179	360
848.23	353
848.281	367
848.331	361
848.382	375
848.432	368
848.483	364
848.534	356
848.584	359
848.635	361
848.685	361
848.736	351
848.786	367
848.837	373
848.888	359
848.938	370
848.989	355
849.039	344
849.09	350
849.14	339
849.191	351
849.242	361
849.292	339
849.343	357
849.393	360
849.444	347
849.494	357
849.545	346
849.596	357
849.646	347
849.697	348
849.747	361
849.798	363
849.848	342
849.899	343
849.95	342
850	355
850.051	348
850.101	341
850.152	336
850.202	337
850.253	357
850.303	344
850.354	347
850.405	345
850.455	348
850.506	350
850.556	349
850.607	338
850.657	336
850.708	354
850.758	342
850.809	333
850.86	333
850.91	334
850.961	339
851.011	341
851.062	332
851.112	357
851.163	342
851.213	349
851.264	348
851.314	330
851.365	326
851.416	343
851.466	347
851.517	338
851.567	316
851.618	322
851.668	321
851.719	337
851.769	343
851.82	342
851.87	324
851.921	343
851.971	346
852.022	318
852.073	332
852.123	322
852.174	343
852.224	333
852.275	335
852.325	346.929
852.376	329.93
852.426	324.315
852.477	343.026
852.527	334.691
852.578	326.988
852.628	321.717
852.679	327.705
852.729	333.736
852.78	330.467
852.831	320.321
852.881	333.581
852.932	332.374
852.982	312.04
853.033	330.724
853.083	335.32
853.134	324.195
853.184	325.316
853.235	314.462
853.285	324.206
853.336	322.378
853.386	321.806
853.437	310.037
853.487	318.821
853.538	318.307
853.588	313.694
853.639	328.683
853.689	318.1
853.74	316.088
853.79	319.946
853.841	315.058
853.891	314.621
853.942	323.062
853.992	326.147
854.043	305.026
854.093	313.965
854.144	315.983
854.194	315.171
854.245	332.34
854.295	312.357
854.346	310.061
854.396	304.452
854.447	299.642
854.497	318.293
854.548	314.075
854.598	311.567
854.649	320.238
854.699	306.025
854.75	319.703
854.8	309.946
854.851	311.495
854.901	309.652
854.952	302.169
855.002	302.36
855.053	308.997
855.103	303.072
855.154	302.983
855.204	298.781
855.255	296.867
855.305	307.59
855.356	303.652
855.406	297.69
855.457	306.332
855.507	302.376
855.558	308.804
855.608	307.808
855.659	307.538
855.709	313.404
855.76	302.182
855.81	298.158
855.861	306.76
855.911	305.567
855.962	302.848
856.012	294.918
856.063	289.689
856.113	299.372
856.164	297.618
856.214	300.254
856.265	306.847
856.315	301.535
856.366	294.684
856.416	300.216
856.467	291.101
856.517	287.904
856.568	294.453
856.618	292.958
856.668	293.609
856.719	295.98
856.769	294.611
856.82	295.47
856.87	292.491
856.921	295.111
856.971	290.584
857.022	287.545
857.072	295.184
857.123	299.255
857.173	293.926
857.224	292.16
857.274	297.147
857.325	295.953
857.352	291
857.403	293
857.453	295
857.504	294
857.555	291
857.606	283
857.656	286
857.707	297
857.758	285
857.809	287
857.859	279
857.91	288
857.961	298
858.012	277
858.063	294
858.113	269
858.164	285
858.215	286
858.266	288
858.316	281
858.367	281
858.418	280
858.469	292
858.519	285
858.57	281
858.621	274
858.672	294
858.722	290
858.773	273
858.824	282
858.875	276
858.925	287
858.976	271
859.027	278
859.078	276
859.128	291
859.179	293
859.23	273
859.281	281
859.331	277
859.382	264
859.433	284
859.483	275
859.534	283
859.585	270
859.636	285
859.686	274
859.737	278
859.788	278
859.839	270
859.889	280
859.94	283
859.991	272
860.042	274
860.092	257
860.143	266
860.194	278
860.245	283
860.295	268
860.346	278
860.397	273
860.447	275
860.498	278
860.549	264
860.6	273
860.65	270
860.701	273
860.752	272
860.802	266
860.853	273
860.904	281
860.955	272
861.005	262
861.056	271
861.107	266
861.158	284
861.208	265
861.259	282
861.31	275
861.36	282
861.411	270
861.462	267
861.513	268
861.563	274
861.614	274
861.665	260
861.715	275
861.766	276
861.817	270
861.868	273
861.918	285
861.969	269
862.02	269
862.07	276
862.121	271
862.172	277
862.223	268
862.273	264
862.324	264
862.375	276
862.425	261
862.476	256
862.527	269
862.577	263
862.628	264
862.679	278
862.73	259
862.78	265
862.831	270
862.882	268
862.932	250
862.983	259
863.034	269
863.084	259
863.135	271
863.186	273
863.237	263
863.287	252
863.338	275
863.389	255
863.439	261
863.49	261
863.541	251
863.591	269
863.642	257
863.693	255
863.744	269
863.794	262
863.845	258
863.896	267
863.946	253
863.997	262
864.048	255
864.098	260
864.149	255
864.2	253
864.25	247
864.301	253
864.352	252
864.402	259
864.453	256
864.504	247
864.555	251
864.605	248
864.656	260
864.707	245
864.757	255
864.808	255
864.859	247
864.909	255
864.96	256
865.011	247
865.061	250
865.112	235
865.163	241
865.213	261
865.264	254
865.315	250
865.365	245
865.416	247
865.467	241
865.517	248
865.568	244
865.619	255
865.669	251
865.72	249
865.771	241
865.821	251
865.872	257
865.923	229
865.973	242
866.024	250
866.075	253
866.125	248
866.176	227
866.227	249
866.277	231
866.328	240
866.379	243
866.429	246
866.48	234
866.531	243
866.581	246
866.632	256
866.683	253
866.733	248
866.784	242
866.835	250
866.885	236
866.936	233
866.987	256
867.037	255
867.088	245
867.138	227
867.189	247
867.24	257
867.29	223
867.341	228
867.392	232
867.442	236
867.493	255
867.544	239
867.594	222
867.645	241
867.696	249
867.746	231
867.797	242
867.848	238
867.898	239
867.949	240
867.999	251
868.05	252
868.101	245
868.151	240
868.202	235
868.253	237
868.303	255
868.354	228
868.405	242
868.455	243
868.506	232
868.556	234
868.607	239
868.658	234
868.708	261
868.759	244
868.81	233
868.86	235
868.911	220
868.961	239
869.012	236
869.063	230
869.113	238
869.164	229
869.215	244
869.265	239
869.316	223
869.367	235
869.417	225
869.468	241
869.518	221
869.569	233
869.62	239
869.67	233
869.721	237
869.771	229
869.822	222
869.873	224
869.923	233
869.974	222
870.025	222
870.075	224
870.126	222
870.176	217
870.227	229
870.278	215
870.328	231
870.379	229
870.43	223
870.48	237
870.531	222
870.581	235
870.632	227
870.683	224
870.733	222
870.784	219
870.834	236
870.885	241
870.936	225
870.986	206
871.037	225
871.087	229
871.138	227
871.189	219
871.239	223
871.29	224
871.34	223
871.391	220
871.442	210
871.492	231
871.543	228
871.593	217
871.644	212
871.695	213
871.745	232
871.796	225
871.846	220
871.897	226
871.948	221
871.998	210
872.049	208
872.099	219
872.15	218
872.201	217
872.251	221
872.302	223
872.352	239
872.403	213
872.453	213
872.504	222
872.555	220
872.605	227
872.656	226
872.706	215
872.757	211
872.808	201
872.858	220
872.909	223
872.959	212
873.01	216
873.06	210
873.111	217
873.162	230
873.212	212
873.263	206
873.313	221
873.364	225
873.415	222
873.465	206
873.516	214
873.566	218
873.617	206
873.667	209
873.718	223
873.769	217
873.819	216
873.87	205
873.92	223
873.971	220
874.021	220
874.072	210
874.123	216
874.173	210
874.224	204
874.274	214
874.325	217
874.375	202
874.426	215
874.477	209
874.527	218
874.578	209
874.628	206
874.679	205
874.729	213
874.78	216
874.83	208
874.881	199
874.932	211
874.982	209
875.033	216
875.083	200
875.134	201
875.184	213
875.235	217
875.285	203
875.336	211
875.387	205
875.437	201
875.488	203
875.538	204
875.589	207
875.639	208
875.69	212
875.74	203
875.791	210
875.841	203
875.892	205
875.943	195
875.993	186
876.044	205
876.094	194
876.145	204
876.195	202
876.246	197
876.296	192
876.347	215
876.397	221
876.448	206
876.499	198
876.549	189
876.6	204
876.65	210
876.701	195
876.751	203
876.802	194
876.852	205
876.903	211
876.953	202
877.004	194
877.054	197
877.105	192
877.155	208
877.206	226
877.257	200
877.307	195
877.358	195
877.408	198
877.459	200
877.509	195
877.56	198
877.61	215
877.661	195
877.711	208
877.762	210
877.812	201
877.863	189
877.913	202
877.964	201
878.014	196
878.065	188
878.115	186
878.166	193
878.216	200
878.267	207
878.318	191
878.368	196
878.419	205
878.469	194
878.52	192
878.57	192
878.621	203
878.671	196
878.722	185
878.772	187
878.823	193
878.873	191
878.924	192
878.974	196
879.025	189
879.075	196
879.126	209
879.176	197
879.227	185
879.277	193
879.328	209
879.378	201
879.429	179
879.479	192
879.53	190
879.58	195
879.631	187
879.681	198
879.732	201
879.782	192
879.833	200
879.883	190
879.934	179
879.984	187
880.035	183
880.085	185
880.136	192
880.186	187
880.237	189
880.287	197
880.338	193
880.388	191
880.439	193
880.489	174
880.54	189
880.59	182
880.641	195
880.691	187
880.742	190
880.792	173
880.842	203
880.893	182
880.943	185
880.994	188
881.044	184
881.095	187
881.145	177
881.196	174
881.246	186
881.297	194
881.347	190
881.398	183
881.448	190
881.499	186
881.549	184
881.6	178
881.65	175
881.701	186
881.751	176
881.802	189
881.852	188
881.902	176
881.953	176
882.003	174
882.054	187
882.104	181
882.155	173
882.205	167
882.256	177
882.306	177
882.357	178
882.407	182
882.458	178
882.508	188
882.559	183
882.609	189
882.659	174
882.71	183
882.76	194
882.811	160
882.861	173
882.912	175
882.962	186
883.013	182
883.063	180
883.114	183
883.164	165
883.214	169
883.265	183
883.315	173
883.366	175
883.416	171
883.467	173
883.517	184
883.568	188
883.618	173
883.669	184
883.719	167
883.769	178
883.82	176
883.87	169
883.921	178
883.971	175
884.022	172
884.072	176
884.123	195
884.173	171
884.223	171
884.274	182
884.324	168
884.375	171
884.425	182
884.476	172
884.526	171
884.577	172
884.627	176
884.677	175
884.728	156
884.778	169
884.829	153
884.879	168
884.93	169
884.98	171
885.03	177
885.081	175
885.131	175
885.182	172
885.232	176
885.283	166
885.333	177
885.383	162
885.434	172
885.484	164
885.535	172
885.585	161
885.635	165
885.686	165
885.736	170
885.787	164
885.837	155
885.888	165
885.938	174
885.988	170
886.039	167
886.089	170
886.14	164
886.19	157
886.241	175
886.291	170
886.341	167
886.392	170
886.442	157
886.493	170
886.543	156
886.593	164
886.644	156
886.694	164
886.745	178
886.795	157
886.845	158
886.896	172
886.946	167
886.997	172
887.047	151
887.097	153
887.148	165
887.198	168
887.249	157
887.299	159
887.349	156
887.4	162
887.45	166
887.501	148
887.551	167
887.602	163
887.652	153
887.702	163
887.753	163
887.803	164
887.853	167
887.904	170
887.954	164
888.005	168
888.055	153
888.105	155
888.156	161
888.206	153
888.257	160
888.307	149
888.357	153
888.408	156
888.458	152
888.509	160
888.559	171
888.609	162
888.66	154
888.71	157
888.76	157
888.811	162
888.861	161
888.912	163
888.962	158
889.012	151
889.063	152
889.113	148
889.163	160
889.214	152
889.264	152
889.315	162
889.365	153
889.415	152
889.466	153
889.516	150
889.566	155
889.617	159
889.667	156
889.718	158
889.768	147
889.818	153
889.869	147
889.919	147
889.969	156
890.02	158
890.07	149
890.12	151
890.171	148
890.221	148
890.272	156
890.322	146
890.372	158
890.423	158
890.473	145
890.523	156
890.574	146
890.624	145
890.674	144
890.725	154
890.775	169
890.826	151
890.876	153
890.926	152
890.977	155
891.027	146
891.077	144
891.128	153
891.178	155
891.228	151
891.279	150
891.329	147
891.379	148
891.43	153
891.48	146
891.53	145
891.581	147
891.631	144
891.681	141
891.732	141
891.782	149
891.832	145
891.883	140
891.933	152
891.983	149
892.034	146
892.084	139
892.134	151
892.185	162
892.235	143
892.286	148
892.336	147
892.386	147
892.437	142
892.487	128
892.537	137
892.587	148
892.638	157
892.688	131
892.738	142
892.789	139
892.839	151
892.889	143
892.94	149
892.99	156
893.04	141
893.091	133
893.141	127
893.191	147
893.242	139
893.292	130
893.342	146
893.393	159
893.443	140
893.493	134
893.544	144
893.594	145
893.644	147
893.695	136
893.745	137
893.795	154
893.846	153
893.896	139
893.946	142
893.996	148
894.047	143
894.097	131
894.147	135
894.198	146
894.248	154
894.298	135
894.349	139
894.399	140
894.449	134
894.5	140
894.55	144
894.6	139
894.65	137
894.701	126
894.751	139
894.801	148
894.852	144
894.902	138
894.952	135
895.003	134
895.053	131
895.103	131
895.153	131
895.204	128
895.254	144
895.304	133
895.355	129
895.405	127
895.455	136
895.505	126
895.556	129
895.606	140
895.656	136
895.707	122
895.757	129
895.807	132
895.858	139
895.908	123
895.958	140
896.008	141
896.059	138
896.109	128
896.159	146
896.21	132
896.26	137
896.31	146
896.36	126
896.411	133
896.461	136
896.511	144
896.561	138
896.612	126
896.662	129
896.712	125
896.763	129
896.813	135
896.863	134
896.913	130
896.964	130
897.014	121
897.064	133
897.115	127
897.165	142
897.215	142
897.265	130
897.316	133
897.366	132
897.416	127
897.466	132
897.517	124
897.567	140
897.617	124
897.667	138
897.718	131
897.768	132
897.818	133
897.868	127
897.919	133
897.969	120
898.019	122
898.069	125
898.12	123
898.17	118
898.22	132
898.27	140
898.321	130
898.371	120
898.421	132
898.471	124
898.522	134
898.572	131
898.622	128
898.672	123
898.723	125
898.773	124
898.823	123
898.873	121
898.924	131
898.974	132
899.024	126
899.074	136
899.125	125.5
899.175	115
899.225	136
899.275	120
899.326	123
899.376	124
899.426	118
899.476	135
899.527	121
899.577	132
899.627	142
899.677	118
899.728	117
899.778	129
899.828	130
899.878	120
899.928	127
899.979	120
