#Acq. time (s)=	3
#Accumulations=	2
#Range (nm)=	520...900
#Windows=	8
#Auto scanning=	Off
#Autofocus=	Off
#AutoExposure=	Off
#Spike filter=	Multiple accum.
#Delay time (s)=	0
#Binning=	1
#Readout mode=	Signal
#DeNoise=	Off
#ICS correction=	Off
#Dark correction=	Off
#Inst. Process=	Off
#Detector temperature (°C)=	-59.98
#Instrument=	LabRAM HR Evol
#Detector=	Syncerity OE
#Objective=	x50_VIS
#Grating=	600 (500nm)
#ND Filter=	25%
#Laser=	514nm_Edge
#Hole=	199.981
#Range=	Auto
#StageXY=	Marzhauser
#StageZ=	Marzhauser
#X (µm)=	-454.1
#Y (µm)=	5366.7
#Z (µm)=	-6.6
#Full time(mm:ss)=	1:32
#Project=	
#Sample=	
#Site=	
#Title=	PL_M3_180324
#Remark=	
#Date=	28.03.2024 09:16
#Acquired=	28.03.2024 09:16:14
520.044	38
520.097	32
520.149	38
520.201	32
520.254	38
520.306	44
520.359	32
520.411	22
520.464	34
520.516	36
520.569	38
520.621	32
520.674	40
520.726	42
520.778	38
520.831	22
520.883	36
520.936	34
520.988	36
521.041	32
521.093	38
521.146	36
521.198	28
521.25	32
521.303	42
521.355	36
521.408	44
521.46	30
521.513	32
521.565	36
521.617	38
521.67	30
521.722	40
521.775	38
521.827	40
521.88	32
521.932	38
521.984	36
522.037	36
522.089	34
522.142	38
522.194	32
522.247	42
522.299	32
522.352	38
522.404	36
522.456	32
522.509	26
522.561	40
522.614	38
522.666	46
522.719	34
522.771	34
522.823	40
522.876	38
522.928	32
522.981	46
523.033	42
523.086	44
523.138	32
523.19	34
523.243	40
523.295	34
523.348	34
523.4	44
523.453	42
523.505	40
523.557	36
523.61	34
523.662	48
523.715	42
523.767	24
523.82	38
523.872	32
523.924	42
523.977	38
524.029	40
524.082	44
524.134	36
524.186	32
524.239	32
524.291	38
524.344	30
524.396	30
524.449	36
524.501	42
524.553	36
524.606	32
524.658	36
524.711	36
524.763	38
524.815	28
524.868	36
524.92	40
524.973	38
525.025	24
525.078	38
525.13	34
525.182	42
525.235	30
525.287	34
525.34	40
525.392	32
525.444	30
525.497	26
525.549	34
525.602	38
525.654	34
525.706	30
525.759	34
525.811	34
525.864	24
525.916	38
525.969	42
526.021	42
526.073	32
526.126	34
526.178	48
526.231	42
526.283	34
526.335	32
526.388	38
526.44	40
526.493	34
526.545	38
526.597	40
526.65	32
526.702	30
526.755	44
526.807	36
526.859	38
526.912	34
526.964	42
527.017	40
527.069	36
527.121	26
527.174	36
527.226	40
527.279	38
527.331	32
527.383	34
527.436	40
527.488	40
527.54	32
527.593	34
527.645	38
527.698	44
527.75	32
527.802	32
527.855	40
527.907	36
527.96	26
528.012	32
528.064	42
528.117	40
528.169	36
528.222	38
528.274	38
528.326	36
528.379	32
528.431	42
528.484	36
528.536	40
528.588	36
528.641	38
528.693	38
528.745	36
528.798	40
528.85	34
528.903	36
528.955	42
529.007	32
529.06	38
529.112	46
529.164	36
529.217	38
529.269	38
529.322	40
529.374	42
529.426	34
529.479	26
529.531	46
529.584	34
529.636	34
529.688	32
529.741	42
529.793	40
529.845	26
529.898	38
529.95	42
530.003	34
530.055	32
530.107	40
530.16	34
530.212	44
530.264	28
530.317	36
530.369	30
530.422	36
530.474	28
530.526	36
530.579	40
530.631	50
530.683	36
530.736	34
530.788	42
530.841	40
530.893	28
530.945	44
530.998	36
531.05	36
531.102	36
531.155	42
531.207	38
531.259	30
531.312	38
531.364	30
531.417	30
531.469	38
531.521	40
531.574	40
531.626	52
531.678	40
531.731	42
531.783	34
531.835	34
531.888	44
531.94	32
531.992	38
532.045	46
532.097	36
532.15	32
532.202	32
532.254	40
532.307	36
532.359	28
532.411	34
532.464	42
532.516	40
532.568	38
532.621	38
532.673	46
532.726	38
532.778	38
532.83	38
532.883	34
532.935	44
532.987	36
533.04	28
533.092	40
533.144	40
533.197	40
533.249	50
533.301	46
533.354	48
533.406	40
533.458	42
533.511	40
533.563	44
533.615	44
533.668	46
533.72	50
533.773	38
533.825	44
533.877	40
533.93	50
533.982	54
534.034	50
534.087	42
534.139	46
534.191	44
534.244	42
534.296	44
534.348	50
534.401	46
534.453	42
534.505	38
534.558	54
534.61	52
534.662	50
534.715	52
534.767	48
534.819	58
534.872	58
534.924	52
534.976	54
535.029	54
535.081	50
535.133	40
535.186	52
535.238	50
535.29	48
535.343	56
535.395	62
535.447	58
535.5	48
535.552	58
535.604	54
535.657	52
535.709	48
535.761	42
535.814	50
535.866	50
535.918	42
535.971	46
536.023	50
536.075	50
536.128	50
536.18	40
536.232	48
536.285	52
536.337	42
536.389	46
536.442	42
536.494	48
536.546	48
536.599	42
536.651	50
536.703	48
536.755	52
536.808	38
536.86	44
536.912	50
536.965	58
537.017	48
537.069	60
537.122	50
537.174	44
537.226	48
537.279	44
537.331	48
537.383	46
537.436	42
537.488	44
537.54	46
537.593	42
537.645	46
537.697	50
537.75	40
537.802	46
537.854	48
537.906	56
537.959	42
538.011	46
538.063	38
538.116	52
538.168	50
538.22	50
538.273	46
538.325	48
538.377	46
538.43	46
538.482	34
538.534	52
538.586	54
538.639	52
538.691	38
538.743	46
538.796	48
538.848	48
538.9	40
538.953	50
539.005	54
539.057	52
539.109	52
539.162	52
539.214	48
539.266	50
539.319	44
539.371	56
539.423	54
539.476	50
539.528	52
539.58	60
539.633	56
539.685	56
539.737	48
539.789	50
539.842	46
539.894	48
539.946	46
539.999	58
540.051	54
540.103	50
540.155	44
540.208	56
540.26	50
540.312	44
540.365	44
540.417	62
540.469	50
540.521	44
540.574	48
540.626	52
540.678	54
540.731	54
540.783	62
540.835	58
540.888	54
540.94	48
540.992	44
541.044	54
541.097	68
541.149	50
541.201	48
541.254	58
541.306	58
541.358	46
541.41	54
541.463	56
541.515	54
541.567	56
541.62	54
541.672	68
541.724	52
541.776	54
541.829	56
541.881	62
541.933	60
541.985	56
542.038	48
542.09	54
542.142	58
542.195	56
542.247	52
542.299	58
542.351	56
542.404	54
542.456	52
542.508	64
542.56	58
542.613	54
542.665	54
542.717	54
542.77	54
542.822	56
542.874	50
542.926	58
542.979	54
543.031	58
543.083	56
543.135	64
543.188	62
543.24	50
543.292	50
543.344	68
543.397	60
543.449	60
543.501	58
543.554	66
543.606	62
543.658	66
543.71	58
543.763	70
543.815	64
543.867	66
543.919	48
543.972	60
544.024	62
544.076	58
544.128	52
544.181	64
544.233	56
544.285	70
544.337	64
544.39	70
544.442	72
544.494	68
544.547	52
544.599	68
544.651	60
544.703	58
544.755	56
544.808	66
544.86	64
544.912	64
544.965	62
545.017	68
545.069	76
545.121	70
545.174	56
545.226	64
545.278	66
545.33	60
545.383	58
545.435	72
545.487	76
545.539	66
545.591	58
545.644	70
545.696	72
545.748	70
545.8	54
545.853	74
545.905	70
545.957	66
546.009	54
546.062	68
546.114	68
546.166	66
546.218	68
546.271	82
546.323	72
546.375	72
546.427	66
546.48	80
546.532	66
546.584	70
546.636	62
546.689	78
546.741	66
546.793	78
546.845	62
546.898	84
546.95	64
547.002	70
547.054	76
547.106	80
547.159	82
547.211	82
547.263	72
547.315	72
547.368	74
547.42	74
547.472	82
547.524	92
547.577	84
547.629	76
547.681	74
547.733	84
547.785	84
547.838	80
547.89	82
547.942	94
547.994	82
548.047	84
548.099	74
548.151	76
548.203	88
548.255	80
548.308	76
548.36	92
548.412	86
548.464	88
548.517	74
548.569	90
548.621	94
548.673	86
548.725	80
548.778	100
548.83	84
548.882	76
548.934	74
548.987	86
549.039	90
549.091	92
549.143	84
549.195	102
549.248	80
549.3	86
549.352	86
549.404	92
549.456	94
549.509	98
549.561	88
549.613	96
549.665	100
549.718	106
549.77	90
549.822	98
549.874	104
549.926	96
549.979	94
550.031	102
550.083	106
550.135	104
550.187	86
550.24	112
550.292	112
550.344	104
550.396	96
550.448	112
550.501	104
550.553	98
550.605	114
550.657	108
550.709	112
550.762	106
550.814	108
550.866	124
550.918	118
550.97	126
551.023	116
551.075	128
551.127	122
551.179	122
551.231	126
551.284	146
551.336	126
551.388	152
551.44	142
551.492	140
551.545	146
551.597	140
551.649	144
551.701	166
551.753	178
551.806	194
551.858	176
551.91	202
551.962	220
552.014	226
552.067	248
552.119	282
552.171	318
552.223	360
552.275	420
552.327	518
552.38	768
552.432	1396
552.484	3172
552.536	6098
552.588	11428
552.641	20962
552.693	30120
552.745	22524
552.797	10836
552.849	3920
552.901	1458
552.954	868
553.006	592
553.058	438
553.11	360
553.162	296
553.215	280
553.267	246
553.319	200
553.371	206
553.423	198
553.475	172
553.528	164
553.58	170
553.632	174
553.684	168
553.736	152
553.788	158
553.841	156
553.893	152
553.945	140
553.997	134
554.049	138
554.102	152
554.154	134
554.206	142
554.258	134
554.31	134
554.362	122
554.414	128
554.467	138
554.519	134
554.571	122
554.623	138
554.675	122
554.727	130
554.78	122
554.832	142
554.884	128
554.936	116
554.988	122
555.04	134
555.093	132
555.145	130
555.197	122
555.249	126
555.301	124
555.353	134
555.406	128
555.458	136
555.51	126
555.562	146
555.614	124
555.666	142
555.719	136
555.771	142
555.823	126
555.875	142
555.927	144
555.979	152
556.031	140
556.084	138
556.136	138
556.188	144
556.24	134
556.292	142
556.344	136
556.396	142
556.449	138
556.501	150
556.553	144
556.605	132
556.657	136
556.709	156
556.762	156
556.814	148
556.866	146
556.918	152
556.97	154
557.022	154
557.074	144
557.127	152
557.179	156
557.231	152
557.283	136
557.335	150
557.387	158
557.439	160
557.492	136
557.544	152
557.596	140
557.648	162
557.7	152
557.752	158
557.804	150
557.856	160
557.909	144
557.961	156
558.013	146
558.065	160
558.117	144
558.169	168
558.221	164
558.273	162
558.326	154
558.378	160
558.43	166
558.482	168
558.534	154
558.586	156
558.638	160
558.691	174
558.743	148
558.795	170
558.847	152
558.899	168
558.951	142
559.003	176
559.055	164
559.108	160
559.16	156
559.212	170
559.264	162
559.316	178
559.368	144
559.42	158
559.472	158
559.525	164
559.577	166
559.629	174
559.681	172
559.733	174
559.785	168
559.837	174
559.889	178
559.941	166
559.994	162
560.046	172
560.098	176
560.15	180
560.202	184
560.254	188
560.306	170
560.358	182
560.41	180
560.463	182
560.515	188
560.567	174
560.619	174
560.671	180
560.723	184
560.775	186
560.827	186
560.879	192
560.932	198
560.984	196
561.036	172
561.088	196
561.14	200
561.192	208
561.244	184
561.296	194
561.348	192
561.4	198
561.453	194
561.505	194
561.557	202
561.609	208
561.661	186
561.713	202
561.765	204
561.817	182
561.869	198
561.921	206
561.974	202
562.026	202
562.078	194
562.13	208
562.182	214
562.234	214
562.286	204
562.338	208
562.39	198
562.442	218
562.494	212
562.547	214
562.599	216
562.651	214
562.703	210
562.755	212
562.807	216
562.859	222
562.911	240
562.963	226
563.015	226
563.067	234
563.12	228
563.172	222
563.224	254
563.276	236
563.328	240
563.38	244
563.432	244
563.484	270
563.536	244
563.588	244
563.64	262
563.692	262
563.744	242
563.797	280
563.849	284
563.901	282
563.953	286
564.005	272
564.057	292
564.109	296
564.161	290
564.213	294
564.265	294
564.317	300
564.369	300
564.421	284
564.474	298
564.526	288
564.578	272
564.63	292
564.682	284
564.734	278
564.786	262
564.838	290
564.89	266
564.942	274
564.994	268
565.046	274
565.098	278
565.15	286
565.202	266
565.255	274
565.307	274
565.359	266
565.411	246
565.463	274
565.515	272
565.567	270
565.619	256
565.671	272
565.723	280
565.775	274
565.827	276
565.879	278
565.931	262
565.983	280
566.035	256
566.087	276
566.139	280
566.192	276
566.244	278
566.296	268
566.348	292
566.4	278
566.452	280
566.504	276
566.556	296
566.608	292
566.66	270
566.712	270
566.764	292
566.816	292
566.868	292
566.92	292
566.972	298
567.024	298
567.076	274
567.128	290
567.18	282
567.232	292
567.285	276
567.337	318
567.389	308
567.441	286
567.493	284
567.545	308
567.597	298
567.649	312
567.701	304
567.753	294
567.805	288
567.857	300
567.909	298
567.961	306
568.013	310
568.065	310
568.117	313.91
568.169	315.796
568.221	319.727
568.273	300.239
568.325	313.503
568.377	313.625
568.429	314.004
568.481	322.009
568.533	325.396
568.585	319.623
568.637	322.954
568.69	319.819
568.742	309.117
568.794	335.672
568.846	338.197
568.898	334.19
568.95	316.892
569.002	331.154
569.054	305.673
569.106	317.919
569.158	326.223
569.21	327.386
569.262	334.48
569.314	355.856
569.366	329.589
569.418	336.179
569.47	353.447
569.522	342.342
569.574	346.449
569.626	347.963
569.678	350.316
569.73	348.142
569.782	349.229
569.834	345.186
569.886	358.523
569.938	367.53
569.99	361.174
570.042	357.922
570.094	352.369
570.146	363.298
570.198	373.23
570.25	372.141
570.302	371.037
570.354	383.475
570.406	384.798
570.458	365.76
570.51	378.321
570.562	390.449
570.614	391.407
570.666	386.054
570.718	385.578
570.77	385.783
570.822	386.075
570.874	401.77
570.926	398.029
570.978	404.312
571.03	404.277
571.082	396.107
571.134	405.138
571.186	403.753
571.238	417.58
571.29	419.87
571.342	424.527
571.394	433.495
571.446	429.496
571.498	446.954
571.55	447.876
571.602	458.701
571.654	444.829
571.706	444.629
571.758	459.261
571.81	474.208
571.862	468.968
571.914	468.81
571.966	469.369
572.018	478.193
572.07	483.298
572.122	492.233
572.174	500.513
572.226	508.325
572.278	508.051
572.33	513.281
572.382	513.639
572.434	524.508
572.486	524.834
572.538	531.397
572.59	531.996
572.642	550.801
572.694	550.192
572.746	551.363
572.798	563.228
572.85	588.286
572.902	582.811
572.954	576.764
573.006	597.504
573.058	611.683
573.11	603.1
573.162	601.533
573.214	623.971
573.266	630.944
573.312	622
573.364	644
573.416	646
573.469	688
573.521	682
573.573	676
573.625	692
573.677	728
573.73	714
573.782	714
573.834	738
573.886	792
573.938	776
573.991	750
574.043	790
574.095	812
574.147	826
574.199	818
574.252	824
574.304	840
574.356	882
574.408	850
574.46	860
574.513	890
574.565	938
574.617	942
574.669	920
574.721	964
574.774	986
574.826	970
574.878	1012
574.93	1014
574.982	1018
575.035	1036
575.087	1030
575.139	1014
575.191	1052
575.243	1022
575.296	1074
575.348	1086
575.4	1110
575.452	1098
575.504	1094
575.556	1104
575.609	1124
575.661	1098
575.713	1082
575.765	1122
575.817	1112
575.87	1116
575.922	1126
575.974	1128
576.026	1102
576.078	1124
576.131	1116
576.183	1102
576.235	1046
576.287	1082
576.339	1092
576.391	1112
576.444	1074
576.496	1064
576.548	1072
576.6	1082
576.652	1052
576.705	1010
576.757	1010
576.809	996
576.861	1010
576.913	1000
576.965	980
577.018	1000
577.07	998
577.122	972
577.174	888
577.226	962
577.279	952
577.331	930
577.383	908
577.435	928
577.487	888
577.539	914
577.592	868
577.644	892
577.696	836
577.748	884
577.8	854
577.852	856
577.905	830
577.957	832
578.009	810
578.061	858
578.113	832
578.165	834
578.218	796
578.27	804
578.322	788
578.374	806
578.426	776
578.478	778
578.531	782
578.583	782
578.635	762
578.687	790
578.739	758
578.791	786
578.844	732
578.896	752
578.948	778
579	768
579.052	760
579.104	722
579.157	724
579.209	756
579.261	758
579.313	736
579.365	734
579.417	750
579.47	762
579.522	762
579.574	772
579.626	754
579.678	752
579.73	766
579.782	740
579.835	784
579.887	766
579.939	772
579.991	772
580.043	758
580.095	768
580.148	776
580.2	748
580.252	792
580.304	740
580.356	762
580.408	766
580.46	760
580.513	776
580.565	764
580.617	770
580.669	768
580.721	752
580.773	778
580.826	756
580.878	786
580.93	766
580.982	762
581.034	754
581.086	770
581.138	770
581.191	784
581.243	750
581.295	750
581.347	782
581.399	748
581.451	808
581.503	780
581.556	768
581.608	790
581.66	772
581.712	778
581.764	776
581.816	792
581.868	800
581.92	792
581.973	752
582.025	776
582.077	780
582.129	794
582.181	802
582.233	766
582.285	754
582.338	788
582.39	802
582.442	782
582.494	788
582.546	796
582.598	792
582.65	800
582.703	830
582.755	800
582.807	790
582.859	832
582.911	818
582.963	820
583.015	800
583.067	824
583.12	822
583.172	830
583.224	814
583.276	814
583.328	850
583.38	852
583.432	828
583.484	842
583.537	848
583.589	868
583.641	850
583.693	862
583.745	838
583.797	852
583.849	834
583.901	864
583.953	830
584.006	866
584.058	876
584.11	888
584.162	868
584.214	882
584.266	844
584.318	884
584.37	892
584.423	866
584.475	870
584.527	898
584.579	896
584.631	908
584.683	858
584.735	918
584.787	936
584.839	956
584.892	884
584.944	926
584.996	926
585.048	906
585.1	934
585.152	942
585.204	940
585.256	942
585.308	960
585.361	980
585.413	950
585.465	990
585.517	982
585.569	1000
585.621	960
585.673	982
585.725	972
585.777	962
585.83	992
585.882	974
585.934	982
585.986	988
586.038	996
586.09	1000
586.142	988
586.194	994
586.246	1030
586.298	986
586.351	1004
586.403	1006
586.455	996
586.507	988
586.559	986
586.611	1042
586.663	1008
586.715	1024
586.767	992
586.819	982
586.872	1014
586.924	994
586.976	1038
587.028	1016
587.08	1046
587.132	1036
587.184	1004
587.236	1050
587.288	1010
587.34	1018
587.392	1022
587.445	1032
587.497	1030
587.549	1040
587.601	1046
587.653	1048
587.705	1052
587.757	1040
587.809	1056
587.861	1064
587.913	1060
587.965	1024
588.018	1080
588.07	1052
588.122	1038
588.174	1060
588.226	1034
588.278	1078
588.33	1068
588.382	1068
588.434	1068
588.486	1062
588.538	1096
588.59	1064
588.642	1048
588.695	1090
588.747	1062
588.799	1074
588.851	1074
588.903	1112
588.955	1092
589.007	1078
589.059	1104
589.111	1092
589.163	1124
589.215	1124
589.267	1074
589.319	1150
589.372	1110
589.424	1124
589.476	1094
589.528	1166
589.58	1114
589.632	1104
589.684	1070
589.736	1096
589.788	1144
589.84	1108
589.892	1104
589.944	1120
589.996	1128
590.048	1066
590.101	1108
590.153	1084
590.205	1094
590.257	1112
590.309	1094
590.361	1092
590.413	1114
590.465	1124
590.517	1096
590.569	1114
590.621	1100
590.673	1106
590.725	1078
590.777	1074
590.829	1096
590.881	1096
590.933	1114
590.986	1078
591.038	1078
591.09	1060
591.142	1088
591.194	1080
591.246	1146
591.298	1096
591.35	1044
591.402	1086
591.454	1062
591.506	1086
591.558	1038
591.61	1052
591.662	1076
591.714	1062
591.766	1060
591.818	996
591.87	1066
591.923	1016
591.975	1040
592.027	1026
592.079	1046
592.131	1064
592.183	1026
592.235	1028
592.287	1008
592.339	1034
592.391	1044
592.443	1044
592.495	1042
592.547	1046
592.599	1010
592.651	1068
592.703	1046
592.755	1066
592.807	1042
592.859	1046
592.911	1026
592.963	1042
593.015	1048
593.068	1064
593.12	1070
593.172	1040
593.224	1042
593.276	1048
593.328	1062
593.38	1072
593.432	1054
593.484	1036
593.536	1060
593.588	1030
593.64	1062
593.692	1074
593.744	1068
593.796	1036
593.848	1066
593.9	1048
593.952	1076
594.004	1036
594.056	1078
594.108	1044
594.16	1046
594.212	1080
594.264	1080
594.316	1054
594.368	1044
594.42	1064
594.472	1082
594.524	1114
594.576	1078
594.628	1070
594.68	1028
594.732	1110
594.784	1024
594.837	1036
594.889	1072
594.941	1116
594.993	1032
595.045	1104
595.097	1052
595.149	1088
595.201	1100
595.253	1092
595.305	1094
595.357	1078
595.409	1132
595.461	1082
595.513	1076
595.565	1112
595.617	1110
595.669	1120
595.721	1074
595.773	1122
595.825	1112
595.877	1154
595.929	1124
595.981	1146
596.033	1134
596.085	1144
596.137	1152
596.189	1144
596.241	1118
596.293	1170
596.345	1130
596.397	1174
596.449	1172
596.501	1156
596.553	1164
596.605	1170
596.657	1172
596.709	1174
596.761	1168
596.813	1156
596.865	1168
596.917	1164
596.969	1154
597.021	1164
597.073	1164
597.125	1154
597.177	1168
597.229	1154
597.281	1146
597.333	1176
597.385	1160
597.437	1198
597.489	1174
597.541	1176
597.593	1168
597.645	1190
597.697	1144
597.749	1194
597.801	1124
597.853	1160
597.905	1184
597.957	1194
598.009	1158
598.061	1180
598.113	1174
598.165	1190
598.217	1172
598.269	1168
598.321	1192
598.373	1186
598.425	1182
598.477	1198
598.529	1172
598.581	1162
598.633	1160
598.685	1196
598.737	1192
598.789	1180
598.841	1182
598.893	1174
598.945	1190
598.997	1184
599.049	1196
599.101	1188
599.153	1192
599.205	1208
599.257	1190
599.309	1198
599.361	1216
599.413	1164
599.465	1142
599.517	1208
599.569	1228
599.62	1170
599.672	1168
599.724	1198
599.776	1166
599.828	1190
599.88	1176
599.932	1184
599.984	1170
600.036	1190
600.088	1196
600.14	1202
600.192	1186
600.244	1196
600.296	1182
600.348	1214
600.4	1214
600.452	1212
600.504	1146
600.556	1192
600.608	1216
600.66	1204
600.712	1192
600.764	1212
600.816	1220
600.868	1192
600.92	1216
600.972	1172
601.024	1230
601.076	1228
601.128	1200
601.18	1222
601.232	1210
601.284	1186
601.335	1198
601.387	1198
601.439	1208
601.491	1222
601.543	1204
601.595	1202
601.647	1176
601.699	1238
601.751	1206
601.803	1188
601.855	1198
601.907	1202
601.959	1148
602.011	1212
602.063	1192
602.115	1202
602.167	1224
602.219	1222
602.271	1240
602.323	1198
602.375	1198
602.427	1208
602.478	1194
602.53	1246
602.582	1198
602.634	1240
602.686	1186
602.738	1228
602.79	1242
602.842	1220
602.894	1234
602.946	1218
602.998	1244
603.05	1244
603.102	1242
603.154	1238
603.206	1200
603.258	1216
603.31	1246
603.362	1256
603.413	1224
603.465	1250
603.517	1256
603.569	1242
603.621	1230
603.673	1260
603.725	1222
603.777	1244
603.829	1276
603.881	1228
603.933	1292
603.985	1244
604.037	1256
604.089	1274
604.141	1270
604.193	1226
604.244	1224
604.296	1286
604.348	1254
604.4	1240
604.452	1250
604.504	1268
604.556	1286
604.608	1270
604.66	1244
604.712	1272
604.764	1282
604.816	1248
604.868	1250
604.92	1254
604.971	1264
605.023	1248
605.075	1270
605.127	1288
605.179	1262
605.231	1284
605.283	1258
605.335	1260
605.387	1234
605.439	1252
605.491	1274
605.543	1246
605.594	1284
605.646	1270
605.698	1272
605.75	1264
605.802	1292
605.854	1258
605.906	1274
605.958	1246
606.01	1254
606.062	1234
606.114	1244
606.166	1238
606.217	1264
606.269	1228
606.321	1298
606.373	1248
606.425	1278
606.477	1262
606.529	1222
606.581	1260
606.633	1288
606.685	1260
606.737	1242
606.789	1244
606.84	1258
606.892	1268
606.944	1266
606.996	1284
607.048	1284
607.1	1268
607.152	1286
607.204	1284
607.256	1240
607.308	1236
607.359	1270
607.411	1270
607.463	1262
607.515	1308
607.567	1276
607.619	1258
607.671	1274
607.723	1232
607.775	1262
607.827	1260
607.878	1278
607.93	1300
607.982	1280
608.034	1282
608.086	1264
608.138	1296
608.19	1306
608.242	1306
608.294	1304
608.345	1308
608.397	1296
608.449	1300
608.501	1294
608.553	1310
608.605	1310
608.657	1316
608.709	1328
608.761	1334
608.812	1294
608.864	1328
608.916	1298
608.968	1300
609.02	1318
609.072	1318
609.124	1288
609.176	1344
609.228	1332
609.279	1312
609.331	1338
609.383	1342
609.435	1346
609.487	1336
609.539	1352
609.591	1312
609.643	1336
609.694	1328
609.746	1342
609.798	1352
609.85	1316
609.902	1324
609.954	1372
610.006	1334
610.058	1342
610.109	1338
610.161	1314
610.213	1310
610.265	1350
610.317	1364
610.369	1318
610.421	1336
610.473	1328
610.524	1344
610.576	1362
610.628	1320
610.68	1380
610.732	1382
610.784	1384
610.836	1332
610.887	1366
610.939	1348
610.991	1384
611.043	1382
611.095	1386
611.147	1386
611.199	1382
611.25	1362
611.302	1384
611.354	1392
611.406	1424
611.458	1400
611.51	1386
611.562	1384
611.614	1434
611.665	1412
611.717	1362
611.769	1430
611.821	1416
611.873	1414
611.925	1380
611.977	1376
612.028	1430
612.08	1382
612.132	1428
612.184	1398
612.236	1402
612.288	1422
612.339	1398
612.391	1396
612.443	1408
612.495	1414
612.547	1426
612.599	1426
612.651	1420
612.702	1408
612.754	1384
612.806	1442
612.858	1428
612.91	1414
612.962	1434
613.013	1458
613.065	1464
613.117	1486
613.169	1464
613.221	1472
613.273	1470
613.325	1428
613.376	1480
613.428	1480
613.48	1486
613.532	1474
613.584	1450
613.635	1486
613.687	1452
613.739	1474
613.791	1506
613.843	1492
613.895	1454
613.947	1480
613.998	1452
614.05	1452
614.102	1480
614.154	1558
614.206	1476
614.258	1522
614.309	1518
614.361	1508
614.413	1472
614.465	1510
614.517	1496
614.568	1524
614.62	1516
614.672	1566
614.724	1564
614.776	1504
614.828	1518
614.879	1544
614.931	1546
614.983	1512
615.035	1538
615.087	1530
615.139	1546
615.19	1536
615.242	1514
615.294	1570
615.346	1544
615.398	1534
615.449	1562
615.501	1554
615.553	1570
615.605	1550
615.657	1514
615.709	1582
615.76	1576
615.812	1600
615.864	1552
615.916	1580
615.968	1570
616.019	1593.6
616.071	1571.06
616.123	1593.29
616.175	1587.2
616.227	1580.15
616.278	1557.42
616.33	1585.06
616.382	1610.11
616.434	1587.38
616.486	1555.23
616.537	1581.75
616.589	1609.86
616.641	1616.94
616.693	1604.76
616.745	1623.16
616.797	1650.05
616.848	1608.68
616.9	1579.32
616.952	1632.96
617.004	1618.12
617.056	1589.13
617.107	1619.17
617.159	1590.07
617.211	1634.42
617.263	1617.14
617.315	1629.36
617.366	1628.09
617.418	1632.18
617.47	1623.1
617.522	1604.45
617.573	1629.53
617.625	1641.08
617.677	1621.75
617.729	1617.28
617.781	1639.12
617.832	1636.88
617.884	1642.52
617.936	1647.04
617.988	1650.3
618.04	1651.92
618.091	1646.68
618.143	1636.41
618.195	1663.16
618.247	1639.26
618.299	1682.34
618.35	1670.5
618.402	1680.63
618.454	1668.79
618.506	1655.65
618.557	1667.2
618.609	1653.25
618.661	1703.55
618.713	1673.43
618.765	1667.84
618.816	1677.23
618.868	1697.08
618.92	1698.85
618.972	1651.5
619.023	1674.91
619.075	1654.44
619.127	1677.01
619.179	1710.27
619.231	1680.41
619.282	1707.02
619.334	1698.52
619.386	1696.86
619.438	1680.71
619.49	1676.1
619.541	1701.73
619.593	1690.75
619.645	1715.87
619.697	1714.31
619.748	1708.62
619.8	1717.05
619.852	1700.92
619.904	1720.18
619.955	1724.27
620.007	1703.46
620.059	1705.13
620.111	1724.87
620.162	1728.91
620.214	1714.09
620.266	1716.26
620.318	1717.04
620.37	1683.78
620.421	1707.66
620.473	1701.57
620.525	1727.02
620.577	1691.99
620.628	1736.8
620.68	1728.96
620.732	1721.5
620.784	1705.42
620.835	1696.88
620.887	1716.4
620.939	1734.69
620.991	1740.55
621.042	1734.6
621.094	1710.58
621.146	1702.1
621.198	1691.44
621.249	1724.93
621.269	1750
621.321	1720
621.373	1736
621.425	1748
621.477	1772
621.529	1750
621.581	1762
621.633	1768
621.685	1740
621.737	1774
621.789	1754
621.841	1740
621.893	1752
621.945	1696
621.997	1714
622.049	1754
622.101	1762
622.153	1742
622.205	1752
622.257	1726
622.309	1782
622.361	1754
622.413	1732
622.465	1732
622.517	1764
622.569	1756
622.621	1762
622.673	1746
622.725	1756
622.776	1754
622.828	1734
622.88	1756
622.932	1810
622.984	1814
623.036	1800
623.088	1766
623.14	1776
623.192	1828
623.244	1716
623.296	1798
623.348	1776
623.4	1802
623.452	1794
623.504	1722
623.556	1776
623.608	1748
623.66	1774
623.712	1808
623.764	1738
623.816	1838
623.868	1784
623.92	1802
623.972	1816
624.024	1818
624.076	1764
624.128	1772
624.18	1790
624.232	1796
624.284	1764
624.336	1850
624.388	1816
624.44	1822
624.492	1792
624.544	1814
624.596	1810
624.648	1802
624.699	1812
624.751	1792
624.803	1796
624.855	1810
624.907	1800
624.959	1842
625.011	1824
625.063	1814
625.115	1808
625.167	1818
625.219	1824
625.271	1798
625.323	1858
625.375	1860
625.427	1838
625.479	1856
625.531	1840
625.583	1830
625.635	1858
625.687	1828
625.739	1850
625.791	1848
625.843	1872
625.895	1832
625.946	1924
625.998	1870
626.05	1860
626.102	1898
626.154	1860
626.206	1854
626.258	1878
626.31	1874
626.362	1846
626.414	1866
626.466	1894
626.518	1854
626.57	1854
626.622	1886
626.674	1884
626.726	1888
626.778	1926
626.83	1894
626.882	1872
626.934	1884
626.985	1916
627.037	1874
627.089	1912
627.141	1920
627.193	1878
627.245	1886
627.297	1918
627.349	1934
627.401	1874
627.453	1910
627.505	1936
627.557	1892
627.609	1958
627.661	1954
627.713	1904
627.765	1916
627.817	1902
627.868	1942
627.92	1934
627.972	1880
628.024	1964
628.076	1924
628.128	1916
628.18	1898
628.232	1988
628.284	1966
628.336	1970
628.388	1936
628.44	1948
628.492	1968
628.544	1942
628.596	1998
628.647	1950
628.699	2010
628.751	1988
628.803	1918
628.855	2002
628.907	1962
628.959	2004
629.011	2006
629.063	1972
629.115	1986
629.167	1924
629.219	2020
629.271	2006
629.322	1992
629.374	1968
629.426	1984
629.478	1978
629.53	2022
629.582	1966
629.634	1982
629.686	2022
629.738	1972
629.79	1984
629.842	2076
629.894	2006
629.945	2052
629.997	1990
630.049	2030
630.101	2016
630.153	2004
630.205	2060
630.257	2056
630.309	2026
630.361	2076
630.413	2044
630.465	2022
630.517	2080
630.568	2084
630.62	2084
630.672	2090
630.724	2044
630.776	2042
630.828	2090
630.88	2024
630.932	2098
630.984	2078
631.036	2060
631.088	2094
631.14	2126
631.191	2056
631.243	2118
631.295	2106
631.347	2116
631.399	2120
631.451	2146
631.503	2122
631.555	2112
631.607	2136
631.659	2140
631.71	2160
631.762	2136
631.814	2126
631.866	2144
631.918	2164
631.97	2164
632.022	2122
632.074	2164
632.126	2132
632.178	2178
632.229	2160
632.281	2182
632.333	2176
632.385	2164
632.437	2148
632.489	2204
632.541	2230
632.593	2126
632.645	2188
632.696	2198
632.748	2242
632.8	2190
632.852	2222
632.904	2220
632.956	2160
633.008	2132
633.06	2250
633.112	2234
633.164	2214
633.215	2250
633.267	2230
633.319	2246
633.371	2254
633.423	2230
633.475	2274
633.527	2232
633.579	2264
633.63	2244
633.682	2218
633.734	2288
633.786	2310
633.838	2308
633.89	2284
633.942	2350
633.994	2334
634.046	2352
634.097	2340
634.149	2298
634.201	2374
634.253	2294
634.305	2338
634.357	2308
634.409	2300
634.461	2354
634.512	2398
634.564	2354
634.616	2412
634.668	2396
634.72	2416
634.772	2426
634.824	2472
634.876	2466
634.927	2436
634.979	2438
635.031	2460
635.083	2468
635.135	2474
635.187	2488
635.239	2514
635.291	2492
635.342	2514
635.394	2570
635.446	2530
635.498	2532
635.55	2600
635.602	2570
635.654	2606
635.705	2594
635.757	2644
635.809	2616
635.861	2598
635.913	2650
635.965	2670
636.017	2744
636.068	2768
636.12	2748
636.172	2770
636.224	2786
636.276	2820
636.328	2848
636.38	2868
636.431	2864
636.483	2886
636.535	2906
636.587	2926
636.639	2924
636.691	2974
636.743	2988
636.794	3028
636.846	3078
636.898	3034
636.95	3070
637.002	3054
637.054	3082
637.106	3110
637.157	3098
637.209	3168
637.261	3216
637.313	3194
637.365	3198
637.417	3186
637.469	3228
637.52	3256
637.572	3250
637.624	3274
637.676	3256
637.728	3318
637.78	3344
637.831	3318
637.883	3250
637.935	3276
637.987	3366
638.039	3390
638.091	3374
638.143	3374
638.194	3378
638.246	3374
638.298	3416
638.35	3406
638.402	3386
638.454	3454
638.505	3408
638.557	3398
638.609	3372
638.661	3426
638.713	3428
638.765	3466
638.816	3400
638.868	3432
638.92	3372
638.972	3324
639.024	3392
639.076	3390
639.127	3390
639.179	3348
639.231	3338
639.283	3306
639.335	3320
639.387	3360
639.438	3278
639.49	3312
639.542	3242
639.594	3208
639.646	3218
639.698	3252
639.749	3214
639.801	3106
639.853	3260
639.905	3164
639.957	3184
640.008	3172
640.06	3144
640.112	3108
640.164	3154
640.216	3120
640.268	3110
640.319	3152
640.371	3114
640.423	3076
640.475	3068
640.527	2994
640.578	3040
640.63	3080
640.682	2972
640.734	2976
640.786	3050
640.838	2964
640.889	2964
640.941	2916
640.993	2984
641.045	3010
641.097	2992
641.148	2978
641.2	2986
641.252	2982
641.304	2918
641.356	2958
641.408	2942
641.459	2942
641.511	2930
641.563	2962
641.615	2970
641.667	2954
641.718	2960
641.77	2968
641.822	2978
641.874	2960
641.926	2976
641.977	2968
642.029	2928
642.081	2940
642.133	2964
642.185	2872
642.236	2904
642.288	2924
642.34	2918
642.392	2922
642.444	2948
642.495	2972
642.547	2896
642.599	2960
642.651	2934
642.703	2934
642.754	2952
642.806	2920
642.858	2890
642.91	2914
642.962	2952
643.013	2920
643.065	2942
643.117	2940
643.169	2912
643.221	3012
643.272	2936
643.324	2928
643.376	2954
643.428	2938
643.479	2910
643.531	2918
643.583	2902
643.635	2990
643.687	2998
643.738	2938
643.79	2938
643.842	2926
643.894	2976
643.946	2970
643.997	2954
644.049	2930
644.101	3016
644.153	3012
644.205	3014
644.256	2948
644.308	3016
644.36	2990
644.412	2924
644.463	2948
644.515	3062
644.567	2992
644.619	3030
644.671	2958
644.722	2976
644.774	3000
644.826	2998
644.878	2990
644.929	3044
644.981	2986
645.033	3040
645.085	3018
645.136	2956
645.188	2962
645.24	3022
645.292	3026
645.344	3062
645.395	2984
645.447	3064
645.499	3066
645.551	3040
645.602	3038
645.654	3082
645.706	3054
645.758	3100
645.81	3056
645.861	3100
645.913	3034
645.965	3100
646.017	3078
646.068	3084
646.12	2980
646.172	3106
646.224	3120
646.275	3142
646.327	3128
646.379	3082
646.431	3136
646.482	3092
646.534	3098
646.586	3110
646.638	3080
646.689	3072
646.741	3094
646.793	3116
646.845	3066
646.896	3120
646.948	3132
647	3106
647.052	3094
647.104	3062
647.155	3110
647.207	3150
647.259	3138
647.31	3140
647.362	3098
647.414	3086
647.466	3152
647.518	3158
647.569	3210
647.621	3098
647.673	3122
647.724	3144
647.776	3160
647.828	3156
647.88	3202
647.931	3140
647.983	3192
648.035	3148
648.087	3180
648.138	3194
648.19	3230
648.242	3234
648.294	3204
648.345	3282
648.397	3234
648.449	3188
648.501	3180
648.552	3208
648.604	3216
648.656	3188
648.708	3124
648.759	3182
648.811	3272
648.863	3242
648.915	3194
648.966	3240
649.018	3206
649.07	3222
649.121	3256
649.173	3246
649.225	3252
649.277	3300
649.328	3274
649.38	3236
649.432	3250
649.484	3258
649.535	3280
649.587	3250
649.639	3328
649.69	3274
649.742	3314
649.794	3368
649.846	3302
649.897	3274
649.949	3360
650.001	3362
650.053	3304
650.104	3352
650.156	3374
650.208	3388
650.259	3420
650.311	3344
650.363	3350
650.415	3374
650.466	3406
650.518	3438
650.57	3374
650.621	3386
650.673	3394
650.725	3390
650.777	3424
650.828	3442
650.88	3452
650.932	3380
650.984	3468
651.035	3450
651.087	3408
651.139	3430
651.19	3446
651.242	3432
651.294	3430
651.345	3498
651.397	3472
651.449	3472
651.501	3436
651.552	3490
651.604	3444
651.656	3464
651.707	3510
651.759	3506
651.811	3462
651.863	3528
651.914	3488
651.966	3584
652.018	3528
652.069	3514
652.121	3532
652.173	3518
652.224	3510
652.276	3552
652.328	3570
652.38	3580
652.431	3516
652.483	3554
652.535	3580
652.586	3568
652.638	3554
652.69	3632
652.741	3546
652.793	3636
652.845	3606
652.897	3560
652.948	3646
653	3602
653.052	3642
653.103	3594
653.155	3598
653.207	3626
653.258	3636
653.31	3704
653.362	3644
653.413	3696
653.465	3696
653.517	3662
653.568	3644
653.62	3686
653.672	3656
653.724	3796
653.775	3708
653.827	3714
653.879	3656
653.93	3708
653.982	3722
654.034	3724
654.085	3700
654.137	3844
654.189	3738
654.24	3758
654.292	3740
654.344	3802
654.395	3772
654.447	3754
654.499	3808
654.55	3836
654.602	3810
654.654	3774
654.705	3874
654.757	3814
654.809	3842
654.86	3836
654.912	3880
654.964	3820
655.016	3830
655.067	3854
655.119	3850
655.17	3890
655.222	3894
655.274	3930
655.326	3870
655.377	3932
655.429	3954
655.481	3974
655.532	3918
655.584	3982
655.635	4028
655.687	3970
655.739	4014
655.79	4010
655.842	4066
655.894	3996
655.945	4026
655.997	4080
656.049	4112
656.1	4066
656.152	4038
656.204	4036
656.255	4066
656.307	4008
656.359	4138
656.41	4084
656.462	4162
656.514	4022
656.565	4142
656.617	4182
656.669	4148
656.72	4178
656.772	4186
656.824	4092
656.875	4196
656.927	4182
656.979	4202
657.03	4212
657.082	4272
657.134	4222
657.185	4202
657.237	4254
657.288	4254
657.34	4268
657.392	4280
657.443	4230
657.495	4288
657.547	4280
657.598	4276
657.65	4334
657.702	4300
657.753	4318
657.805	4272
657.857	4310
657.908	4254
657.96	4278
658.011	4296
658.063	4350
658.115	4316
658.166	4320
658.218	4376
658.27	4350
658.321	4446
658.373	4384
658.425	4354
658.476	4352
658.528	4420
658.579	4430
658.631	4404
658.683	4408
658.734	4376
658.786	4432
658.838	4354
658.889	4464
658.941	4398
658.992	4426
659.044	4502
659.096	4456
659.147	4400
659.199	4456
659.251	4334
659.302	4438
659.354	4492
659.406	4432
659.457	4404
659.509	4480
659.56	4464
659.612	4434
659.664	4408
659.715	4444
659.767	4430
659.818	4430
659.87	4452
659.922	4340
659.973	4530
660.025	4478
660.077	4488
660.128	4454
660.18	4472
660.231	4426
660.283	4474
660.335	4472
660.386	4500
660.438	4444
660.49	4476
660.541	4532
660.593	4460
660.644	4446
660.696	4486
660.748	4512
660.799	4494
660.851	4468
660.902	4476
660.954	4486
661.006	4528
661.057	4428
661.109	4440
661.16	4470
661.212	4486
661.264	4420
661.315	4486
661.367	4464
661.418	4478
661.47	4440
661.522	4472
661.573	4492
661.625	4422
661.676	4452
661.728	4500
661.78	4494
661.831	4536
661.883	4478
661.934	4468
661.986	4508
662.038	4482
662.089	4448
662.141	4488
662.192	4450
662.244	4494
662.296	4480
662.347	4504
662.399	4456
662.45	4432
662.502	4558
662.554	4474
662.605	4554
662.657	4492
662.708	4432
662.76	4488
662.811	4522
662.863	4404
662.915	4474
662.966	4482
663.018	4508
663.069	4472
663.121	4464
663.173	4416
663.224	4486
663.276	4520
663.327	4474
663.379	4488
663.43	4488
663.482	4494
663.534	4396
663.585	4510
663.637	4476
663.688	4466
663.74	4488.32
663.792	4531.8
663.843	4442.67
663.895	4479.85
663.946	4509.83
663.998	4515.66
664.049	4508.16
664.101	4527.71
664.153	4541.82
664.204	4479.89
664.256	4561.81
664.307	4480.47
664.359	4528.94
664.41	4449.95
664.462	4518.64
664.513	4469.65
664.565	4516.8
664.617	4472.74
664.668	4516.95
664.72	4455.48
664.771	4470.08
664.823	4559.65
664.874	4503.01
664.926	4493.1
664.978	4507.01
665.029	4461.25
665.081	4512.67
665.132	4505.52
665.184	4493.83
665.235	4536.31
665.287	4536.02
665.339	4534.84
665.39	4500.67
665.442	4556.12
665.493	4548.27
665.545	4493.77
665.596	4489.77
665.648	4567.49
665.699	4535.62
665.751	4506.95
665.802	4499.1
665.854	4470.55
665.906	4528.44
665.957	4521.45
666.009	4506.13
666.06	4469.18
666.112	4503.45
666.163	4520.91
666.215	4522.53
666.266	4501.14
666.318	4459
666.37	4477.03
666.421	4563.34
666.473	4547.12
666.524	4513.71
666.576	4536.56
666.627	4512.5
666.679	4512.09
666.73	4539.44
666.782	4505.92
666.833	4531.15
666.885	4562.37
666.937	4542.46
666.988	4500.76
667.04	4486.1
667.091	4500.48
667.143	4514.43
667.194	4529.28
667.246	4510.54
667.297	4477.89
667.349	4541.2
667.4	4528.94
667.452	4486.4
667.503	4544.51
667.555	4530.15
667.607	4533.64
667.658	4543.14
667.71	4503.66
667.761	4508.35
667.813	4552.1
667.864	4512.17
667.916	4539.85
667.967	4543.73
668.019	4525.88
668.07	4513.69
668.122	4487.38
668.173	4509.9
668.225	4534.71
668.276	4511.25
668.328	4517.01
668.379	4520.23
668.431	4543.42
668.482	4498.4
668.534	4459.2
668.586	4499.85
668.637	4552.76
668.689	4565.92
668.74	4583.1
668.792	4547.57
668.843	4476.94
668.895	4518.44
668.935	4506
668.987	4574
669.038	4606
669.09	4544
669.142	4496
669.194	4526
669.245	4466
669.297	4526
669.349	4594
669.401	4528
669.453	4546
669.504	4550
669.556	4508
669.608	4494
669.66	4542
669.711	4452
669.763	4578
669.815	4564
669.867	4486
669.918	4542
669.97	4490
670.022	4556
670.074	4526
670.125	4560
670.177	4608
670.229	4550
670.281	4560
670.332	4528
670.384	4524
670.436	4518
670.488	4544
670.539	4570
670.591	4484
670.643	4508
670.695	4540
670.747	4504
670.798	4602
670.85	4510
670.902	4514
670.953	4534
671.005	4490
671.057	4538
671.109	4530
671.161	4560
671.212	4558
671.264	4450
671.316	4588
671.367	4536
671.419	4534
671.471	4530
671.523	4458
671.575	4542
671.626	4556
671.678	4584
671.73	4528
671.781	4538
671.833	4526
671.885	4532
671.937	4568
671.988	4546
672.04	4552
672.092	4516
672.144	4522
672.195	4594
672.247	4544
672.299	4542
672.351	4560
672.402	4534
672.454	4620
672.506	4530
672.558	4646
672.609	4608
672.661	4578
672.713	4582
672.765	4676
672.816	4582
672.868	4612
672.92	4612
672.971	4582
673.023	4610
673.075	4638
673.127	4578
673.178	4588
673.23	4690
673.282	4600
673.334	4628
673.385	4630
673.437	4674
673.489	4632
673.54	4646
673.592	4684
673.644	4712
673.696	4664
673.747	4656
673.799	4670
673.851	4614
673.903	4708
673.954	4676
674.006	4640
674.058	4688
674.109	4716
674.161	4686
674.213	4674
674.265	4730
674.316	4750
674.368	4682
674.42	4756
674.471	4752
674.523	4790
674.575	4734
674.627	4706
674.678	4752
674.73	4730
674.782	4714
674.833	4768
674.885	4804
674.937	4836
674.989	4792
675.04	4748
675.092	4800
675.144	4792
675.195	4854
675.247	4850
675.299	4758
675.351	4708
675.402	4810
675.454	4796
675.506	4822
675.557	4876
675.609	4804
675.661	4810
675.713	4792
675.764	4824
675.816	4802
675.868	4784
675.919	4870
675.971	4852
676.023	4928
676.074	4862
676.126	4824
676.178	4904
676.23	4794
676.281	4842
676.333	4932
676.385	4838
676.436	4836
676.488	4880
676.54	4844
676.591	4860
676.643	4922
676.695	4906
676.747	4860
676.798	4854
676.85	4842
676.902	4882
676.953	4914
677.005	4874
677.057	4948
677.108	4866
677.16	4890
677.212	4854
677.263	4898
677.315	4912
677.367	4832
677.419	4910
677.47	4856
677.522	4858
677.574	4840
677.625	4850
677.677	4922
677.729	4816
677.78	4842
677.832	4930
677.884	4872
677.935	4864
677.987	4892
678.039	4870
678.091	4806
678.142	4892
678.194	4888
678.246	4892
678.297	4954
678.349	4872
678.401	4866
678.452	4858
678.504	4904
678.556	4914
678.607	4908
678.659	4860
678.711	4884
678.762	4838
678.814	4944
678.866	4882
678.917	4904
678.969	4870
679.021	4916
679.072	4958
679.124	4890
679.176	4976
679.227	4808
679.279	4862
679.331	4934
679.382	4918
679.434	4872
679.486	4872
679.537	4924
679.589	4962
679.641	4968
679.692	4910
679.744	4914
679.796	4906
679.847	4900
679.899	4916
679.951	4946
680.003	4936
680.054	4948
680.106	4956
680.157	4978
680.209	4932
680.261	4950
680.312	4930
680.364	4920
680.416	4950
680.467	4868
680.519	4992
680.571	5000
680.622	4924
680.674	5018
680.726	4998
680.777	5046
680.829	5012
680.881	4974
680.932	4984
680.984	4970
681.036	4968
681.087	4958
681.139	5024
681.191	5026
681.242	4972
681.294	4974
681.346	4972
681.397	5042
681.449	5070
681.501	4998
681.552	5014
681.604	5060
681.656	5042
681.707	5076
681.759	5016
681.81	4958
681.862	5064
681.914	5046
681.965	5056
682.017	5012
682.069	5018
682.12	4988
682.172	5116
682.224	5050
682.275	5042
682.327	5006
682.379	4962
682.43	5026
682.482	5074
682.533	5062
682.585	5096
682.637	5084
682.688	5022
682.74	5064
682.792	5080
682.843	5058
682.895	5104
682.947	5004
682.998	5146
683.05	5030
683.102	5024
683.153	5006
683.205	4930
683.256	4988
683.308	5106
683.36	5128
683.411	5094
683.463	5082
683.515	5092
683.566	5040
683.618	5036
683.669	5050
683.721	5138
683.773	5070
683.824	5074
683.876	5008
683.928	5036
683.979	5060
684.031	4984
684.082	5098
684.134	5098
684.186	5036
684.237	4992
684.289	5048
684.341	4994
684.392	5002
684.444	5122
684.495	5094
684.547	4928
684.599	5018
684.65	5006
684.702	5008
684.754	4934
684.805	4940
684.857	5048
684.908	5080
684.96	5002
685.012	5044
685.063	5044
685.115	5030
685.166	5056
685.218	5030
685.27	5018
685.321	5042
685.373	4948
685.424	5024
685.476	4986
685.528	4996
685.579	4978
685.631	4930
685.683	4998
685.734	4958
685.786	4946
685.837	4982
685.889	4924
685.941	4926
685.992	5010
686.044	5006
686.095	4906
686.147	4948
686.199	5008
686.25	4976
686.302	4992
686.353	4974
686.405	5036
686.457	4948
686.508	4970
686.56	4936
686.611	4928
686.663	4964
686.715	4862
686.766	4990
686.818	5016
686.869	4926
686.921	4934
686.973	4960
687.024	4950
687.076	4948
687.127	4896
687.179	4922
687.231	4952
687.282	4950
687.334	5022
687.385	4908
687.437	4882
687.489	4994
687.54	4996
687.592	4930
687.643	4920
687.695	4988
687.747	4890
687.798	4982
687.85	4964
687.901	4964
687.953	4928
688.004	4926
688.056	4868
688.108	4958
688.159	4984
688.211	4902
688.262	4956
688.314	5002
688.366	4954
688.417	4996
688.469	4906
688.52	4856
688.572	4954
688.623	4932
688.675	4874
688.727	4942
688.778	4954
688.83	4872
688.881	4918
688.933	4892
688.984	4980
689.036	4898
689.088	5030
689.139	4920
689.191	4920
689.242	4988
689.294	4948
689.346	4894
689.397	4954
689.449	4892
689.5	4918
689.552	4914
689.603	4888
689.655	4836
689.706	4896
689.758	4854
689.81	4916
689.861	4882
689.913	4884
689.964	4896
690.016	4854
690.067	4838
690.119	4944
690.171	4926
690.222	4884
690.274	4824
690.325	4872
690.377	4856
690.428	4808
690.48	4860
690.531	4860
690.583	4876
690.635	4788
690.686	4872
690.738	4984
690.789	4810
690.841	4920
690.892	4906
690.944	4860
690.996	4890
691.047	4808
691.099	4884
691.15	4854
691.202	4826
691.253	4838
691.305	4808
691.356	4874
691.408	4848
691.459	4828
691.511	4780
691.563	4804
691.614	4868
691.666	4866
691.717	4818
691.769	4772
691.82	4784
691.872	4848
691.923	4736
691.975	4844
692.026	4848
692.078	4826
692.13	4800
692.181	4738
692.233	4818
692.284	4750
692.336	4828
692.387	4710
692.439	4744
692.49	4806
692.542	4766
692.593	4724
692.645	4732
692.697	4714
692.748	4728
692.8	4772
692.851	4790
692.903	4732
692.954	4714
693.006	4810
693.057	4796
693.109	4706
693.16	4752
693.212	4714
693.263	4654
693.315	4726
693.366	4754
693.418	4782
693.47	4744
693.521	4730
693.573	4754
693.624	4750
693.676	4722
693.727	4724
693.779	4748
693.83	4770
693.882	4704
693.933	4756
693.985	4696
694.036	4744
694.088	4682
694.139	4780
694.191	4694
694.242	4626
694.294	4738
694.345	4774
694.397	4712
694.448	4728
694.5	4694
694.552	4770
694.603	4668
694.655	4636
694.706	4782
694.758	4684
694.809	4638
694.861	4634
694.912	4712
694.964	4654
695.015	4780
695.067	4662
695.118	4642
695.17	4650
695.221	4728
695.273	4664
695.324	4714
695.376	4690
695.427	4706
695.479	4664
695.53	4646
695.582	4682
695.633	4668
695.685	4700
695.736	4638
695.788	4688
695.839	4668
695.891	4698
695.942	4710
695.994	4640
696.045	4670
696.097	4606
696.148	4684
696.2	4616
696.251	4608
696.303	4690
696.354	4700
696.406	4656
696.457	4624
696.509	4582
696.56	4658
696.612	4640
696.663	4606
696.715	4600
696.766	4632
696.818	4628
696.869	4590
696.921	4576
696.972	4578
697.024	4578
697.075	4526
697.127	4572
697.178	4602
697.23	4568
697.281	4644
697.333	4596
697.384	4514
697.436	4522
697.487	4496
697.539	4602
697.59	4544
697.642	4540
697.693	4590
697.745	4520
697.796	4548
697.847	4484
697.899	4516
697.95	4598
698.002	4512
698.053	4526
698.105	4538
698.156	4558
698.208	4464
698.259	4504
698.311	4466
698.362	4500
698.414	4488
698.465	4488
698.517	4494
698.568	4482
698.62	4526
698.671	4458
698.723	4406
698.774	4452
698.826	4520
698.877	4424
698.928	4532
698.98	4386
699.031	4470
699.083	4500
699.134	4450
699.186	4438
699.237	4466
699.289	4468
699.34	4428
699.392	4482
699.443	4498
699.495	4466
699.546	4396
699.598	4380
699.649	4488
699.7	4408
699.752	4472
699.803	4376
699.855	4446
699.906	4424
699.958	4478
700.009	4464
700.061	4424
700.112	4442
700.164	4390
700.215	4434
700.266	4434
700.318	4396
700.369	4428
700.421	4306
700.472	4410
700.524	4416
700.575	4410
700.627	4368
700.678	4408
700.73	4456
700.781	4468
700.832	4406
700.884	4378
700.935	4398
700.987	4400
701.038	4414
701.09	4398
701.141	4372
701.193	4434
701.244	4374
701.295	4396
701.347	4404
701.398	4400
701.45	4380
701.501	4408
701.553	4344
701.604	4412
701.656	4404
701.707	4470
701.758	4338
701.81	4454
701.861	4424
701.913	4474
701.964	4416
702.016	4380
702.067	4410
702.119	4362
702.17	4386
702.221	4394
702.273	4414
702.324	4352
702.376	4390
702.427	4454
702.479	4316
702.53	4382
702.581	4422
702.633	4436
702.684	4388
702.736	4460
702.787	4348
702.839	4492
702.89	4394
702.941	4446
702.993	4392
703.044	4428
703.096	4422
703.147	4396
703.199	4428
703.25	4464
703.301	4426
703.353	4444
703.404	4404
703.456	4414
703.507	4424
703.558	4390
703.61	4382
703.661	4366
703.713	4418
703.764	4354
703.816	4462
703.867	4432
703.918	4354
703.97	4374
704.021	4482
704.073	4362
704.124	4330
704.175	4384
704.227	4360
704.278	4306
704.33	4376
704.381	4414
704.432	4360
704.484	4350
704.535	4304
704.587	4344
704.638	4342
704.69	4396
704.741	4408
704.792	4304
704.844	4264
704.895	4340
704.947	4406
704.998	4380
705.049	4336
705.101	4326
705.152	4290
705.204	4304
705.255	4324
705.306	4338
705.358	4332
705.409	4294
705.461	4276
705.512	4288
705.563	4276
705.615	4270
705.666	4278
705.718	4266
705.769	4260
705.82	4270
705.872	4320
705.923	4254
705.974	4250
706.026	4246
706.077	4294
706.129	4174
706.18	4160
706.231	4222
706.283	4226
706.334	4216
706.386	4224
706.437	4224
706.488	4244
706.54	4296
706.591	4180
706.643	4234
706.694	4222
706.745	4182
706.797	4240
706.848	4246
706.899	4232
706.951	4178
707.002	4176
707.054	4206
707.105	4202
707.156	4158
707.208	4208
707.259	4120
707.31	4232
707.362	4178
707.413	4126
707.465	4138
707.516	4152
707.567	4206
707.619	4128
707.67	4108
707.721	4172
707.773	4178
707.824	4182
707.876	4158
707.927	4100
707.978	4122
708.03	4146
708.081	4148
708.132	4208
708.184	4108
708.235	4140
708.287	4084
708.338	4132
708.389	4182
708.441	4094
708.492	4098
708.543	4138
708.595	4158
708.646	4052
708.697	4134
708.749	4102
708.8	4062
708.852	4110
708.903	4084
708.954	4164
709.006	4080
709.057	4056
709.108	4072
709.16	4088
709.211	4130
709.262	4034
709.314	4100
709.365	4066
709.416	4056
709.468	4066
709.519	4082
709.57	4100
709.622	4078
709.673	4094
709.725	4088
709.776	4078
709.827	4090
709.879	4054
709.93	4044
709.981	4096
710.033	4156
710.084	4070
710.135	4098
710.187	4082
710.238	4074
710.289	4002
710.341	4046
710.392	4070
710.443	4108
710.495	4016
710.546	4064
710.597	4092
710.649	4060
710.7	4028
710.751	4052
710.803	4024
710.854	4062
710.905	4098
710.957	4060
711.008	4106
711.059	3976
711.111	3978
711.162	3926
711.213	4000
711.265	4030.18
711.316	4006.82
711.367	4035.68
711.419	4020.37
711.47	4026.84
711.521	4034.29
711.573	4012.65
711.624	4044.64
711.675	4031.77
711.727	4017.79
711.778	3910.11
711.829	4002.78
711.881	4005.48
711.932	3962
711.983	3933.07
712.035	3969
712.086	3946.31
712.137	3945.42
712.189	3928.32
712.24	3988.31
712.291	3996.8
712.343	3947.76
712.394	3924.1
712.445	3958.36
712.496	3949.22
712.548	3967.24
712.599	3926.27
712.65	3930.35
712.702	3916.54
712.753	3896.12
712.804	3899.54
712.856	3885.35
712.907	3922.6
712.958	3906.09
713.01	3913.53
713.061	3878.86
713.112	3868.09
713.164	3904.05
713.215	3893.03
713.266	3892.81
713.317	3889.85
713.369	3881.36
713.42	3807.92
713.471	3860.53
713.523	3881.56
713.574	3818.22
713.625	3838.45
713.677	3836.43
713.728	3850.48
713.779	3850.85
713.831	3832.31
713.882	3861.56
713.933	3869.25
713.984	3820.77
714.036	3824.29
714.087	3808.67
714.138	3791.73
714.19	3808.68
714.241	3823.74
714.292	3795.76
714.343	3782.99
714.395	3776.84
714.446	3806.33
714.497	3768.41
714.549	3811.24
714.6	3781.36
714.651	3750.01
714.703	3761.59
714.754	3749.89
714.805	3766.76
714.856	3736.78
714.908	3756.64
714.959	3712.34
715.01	3722.71
715.062	3759.27
715.113	3724.44
715.164	3733.25
715.215	3735.76
715.267	3746.54
715.318	3771.12
715.369	3753.11
715.421	3770.15
715.472	3741.7
715.523	3721.74
715.574	3723.77
715.626	3707.43
715.677	3691.27
715.728	3671.81
715.779	3708.38
715.831	3702.74
715.882	3680.05
715.933	3697.26
715.985	3708.23
716.036	3677.62
716.087	3673.08
716.138	3725.16
716.19	3682.53
716.241	3735.35
716.292	3735.51
716.343	3682.55
716.395	3667.62
716.433	3678
716.485	3682
716.536	3664
716.588	3632
716.639	3618
716.691	3626
716.742	3592
716.794	3636
716.845	3702
716.897	3688
716.948	3710
717	3674
717.052	3610
717.103	3610
717.155	3634
717.206	3578
717.258	3594
717.309	3576
717.361	3626
717.412	3608
717.464	3598
717.515	3678
717.567	3628
717.618	3682
717.67	3620
717.721	3590
717.773	3534
717.824	3588
717.876	3584
717.927	3616
717.979	3580
718.03	3598
718.082	3550
718.133	3598
718.185	3586
718.237	3498
718.288	3540
718.34	3616
718.391	3566
718.443	3590
718.494	3572
718.546	3576
718.597	3562
718.649	3528
718.7	3500
718.752	3508
718.803	3520
718.855	3490
718.906	3536
718.958	3546
719.009	3530
719.061	3470
719.112	3528
719.164	3468
719.215	3572
719.267	3500
719.318	3512
719.37	3558
719.421	3486
719.473	3496
719.524	3416
719.576	3522
719.627	3488
719.679	3504
719.73	3504
719.782	3474
719.833	3468
719.885	3492
719.936	3436
719.988	3462
720.039	3470
720.091	3444
720.142	3438
720.194	3448
720.245	3446
720.297	3452
720.348	3450
720.4	3408
720.451	3402
720.503	3464
720.554	3390
720.606	3394
720.657	3380
720.709	3358
720.76	3406
720.812	3420
720.863	3370
720.915	3426
720.966	3352
721.018	3418
721.069	3380
721.121	3376
721.172	3352
721.224	3328
721.275	3432
721.327	3350
721.378	3344
721.43	3358
721.481	3382
721.532	3364
721.584	3370
721.635	3292
721.687	3340
721.738	3354
721.79	3324
721.841	3256
721.893	3344
721.944	3322
721.996	3332
722.047	3322
722.099	3338
722.15	3348
722.202	3302
722.253	3308
722.305	3316
722.356	3306
722.408	3268
722.459	3336
722.511	3296
722.562	3320
722.614	3258
722.665	3238
722.716	3294
722.768	3272
722.819	3282
722.871	3284
722.922	3284
722.974	3264
723.025	3186
723.077	3240
723.128	3252
723.18	3184
723.231	3252
723.283	3234
723.334	3240
723.386	3226
723.437	3168
723.488	3198
723.54	3222
723.591	3262
723.643	3200
723.694	3208
723.746	3152
723.797	3180
723.849	3178
723.9	3106
723.952	3174
724.003	3200
724.055	3174
724.106	3206
724.157	3186
724.209	3182
724.26	3138
724.312	3132
724.363	3168
724.415	3178
724.466	3150
724.518	3144
724.569	3190
724.621	3146
724.672	3162
724.723	3148
724.775	3160
724.826	3178
724.878	3188
724.929	3138
724.981	3116
725.032	3138
725.084	3146
725.135	3120
725.187	3166
725.238	3130
725.289	3170
725.341	3138
725.392	3122
725.444	3138
725.495	3132
725.547	3068
725.598	3116
725.65	3092
725.701	3108
725.752	3114
725.804	3138
725.855	3112
725.907	3082
725.958	3108
726.01	3094
726.061	3104
726.112	3058
726.164	3080
726.215	3106
726.267	3052
726.318	3080
726.37	3046
726.421	3106
726.473	3014
726.524	3064
726.575	3068
726.627	3042
726.678	3044
726.73	3088
726.781	3024
726.833	3036
726.884	2968
726.935	3012
726.987	3004
727.038	3064
727.09	3052
727.141	3010
727.193	2956
727.244	3014
727.295	3004
727.347	2960
727.398	3002
727.45	3028
727.501	3026
727.552	2988
727.604	3016
727.655	2954
727.707	2980
727.758	2996
727.81	2912
727.861	2992
727.912	2930
727.964	2872
728.015	2964
728.067	3010
728.118	2900
728.17	2940
728.221	2980
728.272	2970
728.324	2928
728.375	2950
728.427	2970
728.478	2942
728.529	2898
728.581	2814
728.632	2912
728.684	2882
728.735	2904
728.786	2920
728.838	2864
728.889	2870
728.941	2838
728.992	2852
729.044	2876
729.095	2836
729.146	2870
729.198	2838
729.249	2846
729.301	2826
729.352	2850
729.403	2806
729.455	2808
729.506	2834
729.558	2828
729.609	2798
729.66	2820
729.712	2820
729.763	2812
729.815	2752
729.866	2776
729.917	2758
729.969	2830
730.02	2738
730.072	2788
730.123	2806
730.174	2730
730.226	2790
730.277	2732
730.329	2776
730.38	2780
730.431	2734
730.483	2774
730.534	2788
730.586	2718
730.637	2734
730.688	2772
730.74	2712
730.791	2746
730.842	2724
730.894	2676
730.945	2706
730.997	2732
731.048	2748
731.099	2678
731.151	2702
731.202	2732
731.254	2676
731.305	2714
731.356	2712
731.408	2660
731.459	2698
731.51	2696
731.562	2716
731.613	2708
731.665	2730
731.716	2662
731.767	2684
731.819	2734
731.87	2686
731.922	2664
731.973	2664
732.024	2700
732.076	2694
732.127	2666
732.178	2654
732.23	2652
732.281	2690
732.333	2708
732.384	2672
732.435	2674
732.487	2650
732.538	2676
732.589	2678
732.641	2690
732.692	2680
732.744	2668
732.795	2690
732.846	2650
732.898	2614
732.949	2702
733	2662
733.052	2662
733.103	2596
733.154	2638
733.206	2622
733.257	2604
733.309	2560
733.36	2624
733.411	2586
733.463	2638
733.514	2614
733.565	2636
733.617	2598
733.668	2606
733.719	2610
733.771	2624
733.822	2606
733.873	2608
733.925	2592
733.976	2600
734.028	2632
734.079	2586
734.13	2594
734.182	2572
734.233	2580
734.284	2596
734.336	2610
734.387	2640
734.438	2578
734.49	2550
734.541	2626
734.592	2624
734.644	2636
734.695	2632
734.747	2614
734.798	2572
734.849	2608
734.901	2614
734.952	2578
735.003	2562
735.055	2594
735.106	2598
735.157	2596
735.209	2604
735.26	2628
735.311	2576
735.363	2542
735.414	2590
735.465	2582
735.517	2548
735.568	2614
735.619	2534
735.671	2568
735.722	2552
735.773	2582
735.825	2570
735.876	2576
735.927	2506
735.979	2602
736.03	2550
736.081	2576
736.133	2580
736.184	2578
736.235	2638
736.287	2590
736.338	2582
736.389	2528
736.441	2566
736.492	2612
736.543	2592
736.595	2588
736.646	2608
736.697	2552
736.749	2552
736.8	2570
736.851	2552
736.903	2514
736.954	2532
737.005	2592
737.057	2624
737.108	2544
737.159	2538
737.211	2492
737.262	2582
737.313	2566
737.365	2584
737.416	2582
737.467	2560
737.518	2540
737.57	2620
737.621	2482
737.672	2562
737.724	2532
737.775	2492
737.826	2584
737.878	2578
737.929	2558
737.98	2544
738.032	2578
738.083	2492
738.134	2564
738.186	2526
738.237	2574
738.288	2552
738.339	2578
738.391	2542
738.442	2544
738.493	2522
738.545	2508
738.596	2576
738.647	2578
738.699	2554
738.75	2540
738.801	2544
738.853	2470
738.904	2500
738.955	2522
739.006	2532
739.058	2520
739.109	2502
739.16	2464
739.212	2558
739.263	2474
739.314	2542
739.366	2494
739.417	2450
739.468	2546
739.519	2482
739.571	2520
739.622	2522
739.673	2538
739.725	2506
739.776	2468
739.827	2472
739.878	2468
739.93	2460
739.981	2500
740.032	2438
740.084	2456
740.135	2418
740.186	2422
740.237	2454
740.289	2484
740.34	2446
740.391	2454
740.443	2478
740.494	2434
740.545	2468
740.596	2432
740.648	2432
740.699	2414
740.75	2386
740.802	2452
740.853	2450
740.904	2424
740.956	2438
741.007	2412
741.058	2352
741.109	2440
741.161	2386
741.212	2442
741.263	2402
741.314	2390
741.366	2398
741.417	2406
741.468	2434
741.52	2400
741.571	2400
741.622	2394
741.673	2420
741.725	2350
741.776	2370
741.827	2388
741.878	2354
741.93	2346
741.981	2346
742.032	2370
742.083	2322
742.135	2322
742.186	2354
742.237	2368
742.289	2306
742.34	2396
742.391	2332
742.442	2360
742.494	2336
742.545	2298
742.596	2336
742.647	2338
742.699	2342
742.75	2314
742.801	2338
742.852	2326
742.904	2300
742.955	2346
743.006	2318
743.057	2300
743.109	2334
743.16	2284
743.211	2328
743.263	2352
743.314	2298
743.365	2222
743.416	2236
743.468	2318
743.519	2326
743.57	2302
743.621	2288
743.672	2312
743.724	2318
743.775	2272
743.826	2260
743.878	2282
743.929	2278
743.98	2246
744.031	2322
744.083	2288
744.134	2228
744.185	2290
744.236	2318
744.287	2246
744.339	2196
744.39	2268
744.441	2252
744.492	2264
744.544	2224
744.595	2204
744.646	2266
744.697	2250
744.749	2250
744.8	2244
744.851	2266
744.902	2238
744.954	2236
745.005	2246
745.056	2212
745.107	2204
745.159	2240
745.21	2228
745.261	2266
745.312	2218
745.363	2186
745.415	2174
745.466	2232
745.517	2240
745.568	2228
745.62	2238
745.671	2216
745.722	2194
745.773	2216
745.824	2208
745.876	2176
745.927	2184
745.978	2188
746.029	2162
746.081	2150
746.132	2164
746.183	2162
746.234	2168
746.285	2182
746.337	2152
746.388	2192
746.439	2218
746.49	2166
746.542	2194
746.593	2228
746.644	2152
746.695	2190
746.746	2180
746.798	2162
746.849	2134
746.9	2154
746.951	2132
747.003	2132
747.054	2142
747.105	2142
747.156	2134
747.207	2186
747.259	2162
747.31	2198
747.361	2166
747.412	2132
747.463	2156
747.515	2160
747.566	2174
747.617	2124
747.668	2114
747.719	2140
747.771	2110
747.822	2174
747.873	2122
747.924	2134
747.975	2102
748.027	2174
748.078	2170
748.129	2154
748.18	2122
748.231	2142
748.283	2084
748.334	2110
748.385	2158
748.436	2132
748.487	2116
748.539	2112
748.59	2110
748.641	2160
748.692	2102
748.743	2106
748.795	2118
748.846	2094
748.897	2080
748.948	2096
748.999	2052
749.05	2112
749.102	2068
749.153	2114
749.204	2088
749.255	2150
749.306	2050
749.358	2120
749.409	2082
749.46	2122
749.511	2070
749.562	2116
749.614	2040
749.665	2100
749.716	2060
749.767	2086
749.818	2066
749.869	2104
749.921	2072
749.972	2042
750.023	2070
750.074	2054
750.125	2074
750.177	1998
750.228	2048
750.279	2054
750.33	2030
750.381	2094
750.432	2068
750.484	2072
750.535	2038
750.586	2026
750.637	1980
750.688	2046
750.739	2010
750.791	2046
750.842	2040
750.893	2028
750.944	2052
750.995	1996
751.046	2042
751.098	1980
751.149	2006
751.2	2048
751.251	2014
751.302	2022
751.353	1972
751.404	2010
751.456	1970
751.507	1990
751.558	2020
751.609	2018
751.66	1978
751.711	2032
751.763	2004
751.814	2002
751.865	2002
751.916	1950
751.967	1966
752.018	1952
752.07	1952
752.121	2002
752.172	1948
752.223	1970
752.274	1942
752.325	1926
752.376	1964
752.428	1954
752.479	1966
752.53	1966
752.581	1934
752.632	1960
752.683	1944
752.734	1960
752.786	1956
752.837	1910
752.888	1952
752.939	1884
752.99	1952
753.041	1886
753.092	1926
753.144	1962
753.195	1950
753.246	1902
753.297	1870
753.348	1922
753.399	1904
753.45	1880
753.502	1924
753.553	1958
753.604	1884
753.655	1876
753.706	1914
753.757	1890
753.808	1892
753.859	1890
753.911	1904
753.962	1894
754.013	1898
754.064	1870
754.115	1884
754.166	1892
754.217	1884
754.269	1868
754.32	1860
754.371	1858
754.422	1906
754.473	1890
754.524	1870
754.575	1852
754.626	1846
754.678	1868
754.729	1888
754.78	1884
754.831	1894
754.882	1884
754.933	1852
754.984	1828
755.035	1872
755.086	1880
755.138	1852
755.189	1842
755.24	1826
755.291	1818
755.342	1834
755.393	1854
755.444	1820
755.495	1804
755.547	1772
755.598	1838
755.649	1824
755.7	1854
755.751	1834
755.802	1814
755.853	1804
755.904	1858
755.955	1846
756.006	1812
756.058	1834
756.109	1806
756.16	1822
756.211	1808
756.262	1776
756.313	1802
756.364	1782
756.415	1822
756.466	1790
756.518	1810
756.569	1774
756.62	1758
756.671	1806
756.722	1766
756.773	1740
756.824	1780
756.875	1776
756.926	1752
756.977	1776
757.029	1788
757.08	1754
757.131	1788
757.182	1786
757.233	1758
757.284	1784
757.335	1792
757.386	1784
757.437	1768
757.488	1788
757.539	1798
757.59	1782
757.642	1742
757.693	1758
757.744	1760
757.795	1742
757.846	1756
757.897	1724
757.948	1732
757.999	1746
758.05	1756
758.101	1714
758.152	1748
758.203	1720
758.255	1710
758.306	1732
758.357	1700
758.408	1694
758.459	1752
758.51	1735.98
758.561	1734.09
758.612	1667.83
758.663	1703.24
758.714	1726.23
758.765	1730.48
758.816	1718.31
758.867	1693.24
758.919	1693.58
758.97	1726.43
759.021	1723.22
759.072	1704.16
759.123	1716.25
759.174	1710.32
759.225	1681.95
759.276	1679.29
759.327	1670.41
759.378	1706.64
759.429	1699.45
759.48	1720.24
759.531	1666.54
759.582	1675.37
759.633	1685.51
759.685	1686.77
759.736	1678.67
759.787	1658.61
759.838	1687.44
759.889	1646.56
759.94	1693.66
759.991	1693.76
760.042	1685.02
760.093	1645.81
760.144	1637.16
760.195	1621.95
760.246	1668.13
760.297	1681.98
760.348	1649.1
760.399	1653.12
760.45	1642.35
760.501	1649.61
760.552	1628.98
760.603	1654.24
760.655	1655.72
760.706	1629.54
760.757	1601.8
760.808	1635.2
760.859	1641.9
760.91	1651.56
760.961	1627.94
761.012	1624.13
761.063	1621.23
761.114	1613.94
761.165	1623.68
761.216	1609.91
761.267	1610.93
761.318	1596.89
761.369	1563.87
761.42	1591.86
761.471	1616.77
761.522	1626.14
761.573	1592.07
761.624	1631.49
761.675	1590.77
761.726	1599.71
761.777	1618.55
761.828	1601.22
761.88	1597.98
761.931	1589.28
761.982	1594.37
762.033	1614.18
762.084	1583.62
762.135	1563.99
762.186	1599.02
762.237	1604.32
762.288	1598.9
762.339	1610.65
762.39	1594.68
762.441	1568.63
762.492	1552.85
762.543	1591.03
762.594	1589.47
762.645	1586.83
762.696	1577.62
762.747	1578.84
762.798	1563.88
762.849	1592.75
762.9	1564.85
762.951	1549.73
763.002	1570.1
763.053	1567.5
763.104	1534.98
763.155	1563.15
763.206	1554.29
763.257	1509.34
763.308	1527.57
763.359	1546.29
763.41	1523.51
763.461	1549.75
763.512	1540.64
763.563	1538.62
763.614	1522.03
763.665	1535.5
763.678	1542
763.729	1530
763.78	1544
763.832	1516
763.883	1506
763.934	1496
763.986	1508
764.037	1536
764.088	1548
764.139	1494
764.191	1526
764.242	1508
764.293	1498
764.345	1484
764.396	1478
764.447	1506
764.498	1528
764.55	1504
764.601	1532
764.652	1494
764.704	1472
764.755	1480
764.806	1494
764.857	1504
764.909	1472
764.96	1468
765.011	1504
765.062	1442
765.114	1496
765.165	1482
765.216	1488
765.268	1486
765.319	1488
765.37	1468
765.421	1474
765.473	1466
765.524	1498
765.575	1450
765.626	1476
765.678	1462
765.729	1412
765.78	1460
765.831	1444
765.883	1480
765.934	1460
765.985	1440
766.036	1456
766.088	1446
766.139	1418
766.19	1474
766.242	1448
766.293	1460
766.344	1460
766.395	1430
766.447	1462
766.498	1458
766.549	1454
766.6	1448
766.652	1446
766.703	1428
766.754	1398
766.805	1456
766.857	1432
766.908	1418
766.959	1392
767.01	1428
767.062	1400
767.113	1380
767.164	1450
767.215	1408
767.267	1410
767.318	1404
767.369	1416
767.42	1410
767.472	1412
767.523	1406
767.574	1428
767.625	1416
767.677	1384
767.728	1418
767.779	1426
767.83	1412
767.882	1418
767.933	1382
767.984	1416
768.035	1354
768.087	1392
768.138	1360
768.189	1392
768.24	1368
768.292	1380
768.343	1402
768.394	1326
768.445	1348
768.497	1348
768.548	1356
768.599	1330
768.65	1384
768.701	1344
768.753	1388
768.804	1356
768.855	1352
768.906	1390
768.958	1328
769.009	1326
769.06	1372
769.111	1300
769.163	1374
769.214	1356
769.265	1352
769.316	1290
769.367	1336
769.419	1358
769.47	1302
769.521	1336
769.572	1318
769.624	1372
769.675	1324
769.726	1324
769.777	1336
769.828	1328
769.88	1320
769.931	1294
769.982	1320
770.033	1326
770.085	1324
770.136	1278
770.187	1326
770.238	1298
770.289	1312
770.341	1280
770.392	1324
770.443	1292
770.494	1294
770.546	1340
770.597	1298
770.648	1270
770.699	1302
770.75	1262
770.802	1252
770.853	1298
770.904	1298
770.955	1282
771.006	1270
771.058	1306
771.109	1306
771.16	1276
771.211	1244
771.263	1274
771.314	1288
771.365	1272
771.416	1250
771.467	1248
771.519	1280
771.57	1256
771.621	1254
771.672	1246
771.723	1254
771.775	1262
771.826	1230
771.877	1244
771.928	1262
771.979	1206
772.031	1258
772.082	1202
772.133	1272
772.184	1220
772.235	1234
772.287	1214
772.338	1244
772.389	1206
772.44	1202
772.491	1232
772.543	1230
772.594	1234
772.645	1224
772.696	1210
772.747	1208
772.799	1218
772.85	1202
772.901	1222
772.952	1178
773.003	1214
773.055	1222
773.106	1200
773.157	1232
773.208	1190
773.259	1256
773.31	1188
773.362	1188
773.413	1216
773.464	1190
773.515	1178
773.566	1226
773.618	1208
773.669	1208
773.72	1186
773.771	1172
773.822	1194
773.873	1202
773.925	1156
773.976	1192
774.027	1190
774.078	1158
774.129	1182
774.18	1164
774.232	1158
774.283	1198
774.334	1206
774.385	1174
774.436	1160
774.488	1172
774.539	1174
774.59	1196
774.641	1152
774.692	1162
774.743	1172
774.795	1152
774.846	1174
774.897	1150
774.948	1150
774.999	1164
775.05	1136
775.102	1134
775.153	1126
775.204	1140
775.255	1134
775.306	1130
775.357	1138
775.409	1162
775.46	1150
775.511	1136
775.562	1136
775.613	1128
775.664	1098
775.716	1168
775.767	1114
775.818	1128
775.869	1106
775.92	1098
775.971	1132
776.023	1102
776.074	1126
776.125	1116
776.176	1142
776.227	1122
776.278	1092
776.329	1092
776.381	1100
776.432	1080
776.483	1132
776.534	1096
776.585	1092
776.636	1108
776.688	1092
776.739	1106
776.79	1104
776.841	1080
776.892	1040
776.943	1124
776.994	1112
777.046	1096
777.097	1086
777.148	1086
777.199	1080
777.25	1080
777.301	1100
777.352	1100
777.404	1102
777.455	1062
777.506	1052
777.557	1094
777.608	1054
777.659	1036
777.71	1058
777.762	1042
777.813	1058
777.864	1040
777.915	1082
777.966	1072
778.017	1058
778.068	1068
778.12	1062
778.171	1080
778.222	1068
778.273	1048
778.324	1056
778.375	1058
778.426	1044
778.477	1062
778.529	1050
778.58	1082
778.631	1034
778.682	1046
778.733	1038
778.784	1012
778.835	1022
778.886	1022
778.938	1004
778.989	1044
779.04	1024
779.091	992
779.142	1038
779.193	1040
779.244	1014
779.295	1046
779.347	984
779.398	1032
779.449	1034
779.5	1064
779.551	1004
779.602	1018
779.653	996
779.704	1016
779.755	1010
779.807	1016
779.858	1002
779.909	1038
779.96	980
780.011	1006
780.062	1000
780.113	1028
780.164	1008
780.216	990
780.267	994
780.318	1004
780.369	980
780.42	998
780.471	990
780.522	1010
780.573	1020
780.624	1022
780.675	996
780.727	982
780.778	964
780.829	966
780.88	944
780.931	990
780.982	934
781.033	988
781.084	972
781.135	984
781.187	968
781.238	958
781.289	966
781.34	984
781.391	960
781.442	972
781.493	958
781.544	986
781.595	974
781.646	936
781.698	942
781.749	962
781.8	930
781.851	946
781.902	954
781.953	968
782.004	956
782.055	960
782.106	934
782.157	946
782.208	920
782.26	926
782.311	920
782.362	930
782.413	948
782.464	926
782.515	950
782.566	944
782.617	952
782.668	908
782.719	916
782.77	922
782.821	930
782.872	896
782.924	922
782.975	950
783.026	928
783.077	902
783.128	896
783.179	936
783.23	906
783.281	930
783.332	912
783.383	940
783.434	926
783.485	904
783.536	894
783.588	886
783.639	886
783.69	916
783.741	912
783.792	906
783.843	870
783.894	926
783.945	896
783.996	898
784.047	842
784.098	898
784.149	902
784.2	888
784.252	900
784.303	896
784.354	860
784.405	848
784.456	920
784.507	904
784.558	886
784.609	854
784.66	850
784.711	876
784.762	892
784.813	874
784.864	834
784.915	858
784.966	880
785.017	872
785.068	864
785.12	848
785.171	868
785.222	872
785.273	892
785.324	872
785.375	856
785.426	836
785.477	856
785.528	866
785.579	860
785.63	888
785.681	856
785.732	824
785.783	850
785.834	896
785.885	868
785.936	826
785.987	846
786.038	850
786.089	824
786.141	840
786.192	866
786.243	818
786.294	852
786.345	850
786.396	826
786.447	796
786.498	806
786.549	804
786.6	820
786.651	820
786.702	864
786.753	834
786.804	804
786.855	818
786.906	830
786.957	824
787.008	824
787.059	814
787.11	830
787.161	816
787.212	824
787.263	776
787.314	814
787.365	838
787.416	796
787.467	778
787.518	816
787.57	802
787.621	814
787.672	836
787.723	760
787.774	794
787.825	812
787.876	794
787.927	788
787.978	800
788.029	804
788.08	776
788.131	784
788.182	806
788.233	786
788.284	828
788.335	790
788.386	816
788.437	796
788.488	782
788.539	804
788.59	792
788.641	766
788.692	770
788.743	804
788.794	778
788.845	766
788.896	766
788.947	778
788.998	772
789.049	758
789.1	780
789.151	788
789.202	782
789.253	752
789.304	738
789.355	796
789.406	782
789.457	758
789.508	780
789.559	756
789.61	778
789.661	728
789.712	770
789.763	766
789.814	750
789.865	756
789.916	730
789.967	722
790.018	764
790.069	770
790.12	752
790.171	796
790.222	762
790.273	734
790.324	738
790.375	754
790.426	746
790.477	776
790.528	730
790.579	766
790.63	758
790.681	762
790.732	716
790.783	716
790.834	720
790.885	728
790.936	748
790.987	736
791.038	724
791.089	752
791.14	764
791.191	746
791.242	712
791.293	736
791.344	730
791.395	714
791.446	718
791.497	736
791.548	722
791.599	730
791.65	720
791.701	730
791.752	742
791.803	716
791.854	680
791.905	710
791.956	708
792.007	726
792.058	710
792.109	716
792.16	696
792.211	712
792.262	708
792.313	716
792.363	722
792.414	728
792.465	676
792.516	724
792.567	712
792.618	700
792.669	692
792.72	706
792.771	684
792.822	734
792.873	700
792.924	692
792.975	696
793.026	700
793.077	676
793.128	688
793.179	684
793.23	668
793.281	668
793.332	694
793.383	704
793.434	708
793.485	666
793.536	658
793.587	670
793.638	696
793.689	666
793.74	676
793.79	694
793.841	664
793.892	692
793.943	694
793.994	676
794.045	672
794.096	660
794.147	706
794.198	662
794.249	670
794.3	676
794.351	652
794.402	690
794.453	668
794.504	664
794.555	662
794.606	664
794.657	630
794.708	644
794.758	652
794.809	650
794.86	634
794.911	672
794.962	670
795.013	660
795.064	658
795.115	664
795.166	666
795.217	636
795.268	632
795.319	660
795.37	626
795.421	628
795.472	644
795.523	612
795.573	636
795.624	626
795.675	628
795.726	614
795.777	652
795.828	638
795.879	630
795.93	630
795.981	648
796.032	610
796.083	638
796.134	632
796.185	632
796.236	610
796.286	620
796.337	608
796.388	630
796.439	626
796.49	606
796.541	616
796.592	640
796.643	622
796.694	622
796.745	606
796.796	626
796.847	616
796.897	622
796.948	618
796.999	632
797.05	604
797.101	614
797.152	598
797.203	632
797.254	618
797.305	610
797.356	622
797.407	608
797.458	610
797.508	606
797.559	618
797.61	602
797.661	600
797.712	582
797.763	582
797.814	616
797.865	582
797.916	628
797.967	598
798.018	606
798.068	598
798.119	592
798.17	624
798.221	606
798.272	588
798.323	606
798.374	612
798.425	594
798.476	582
798.526	598
798.577	556
798.628	572
798.679	578
798.73	606
798.781	578
798.832	610
798.883	568
798.934	580
798.984	594
799.035	570
799.086	588
799.137	592
799.188	584
799.239	578
799.29	570
799.341	572
799.392	568
799.443	552
799.493	584
799.544	580
799.595	570
799.646	570
799.697	576
799.748	558
799.799	578
799.85	576
799.9	554
799.951	596
800.002	556
800.053	562
800.104	558
800.155	574
800.206	564
800.257	540
800.307	550
800.358	552
800.409	582
800.46	562
800.511	544
800.562	570
800.613	548
800.664	570
800.714	534
800.765	554
800.816	550
800.867	568
800.918	554
800.969	576
801.02	526
801.07	552
801.121	542
801.172	556
801.223	542
801.274	560
801.325	522
801.376	516
801.427	532
801.477	576
801.528	530
801.579	548
801.63	544
801.681	538
801.732	542
801.783	532
801.833	546
801.884	546
801.935	540
801.986	502
802.037	536
802.088	510
802.139	534
802.189	532
802.24	518
802.291	536
802.342	524
802.393	508
802.444	534
802.495	542
802.545	500
802.596	526
802.647	522
802.698	520
802.749	514
802.8	530
802.85	516
802.901	514
802.952	540
803.003	512
803.054	524
803.105	510
803.155	510
803.206	518
803.257	518
803.308	516
803.359	510
803.41	522
803.46	522
803.511	516
803.562	472
803.613	512
803.664	512
803.715	528
803.765	510
803.816	522
803.867	530
803.918	486
803.969	488
804.02	510
804.07	518
804.121	500
804.172	514
804.223	510
804.274	506
804.325	500
804.375	498
804.426	486
804.477	514
804.528	494
804.579	480
804.63	500
804.68	472
804.731	506
804.782	480
804.833	494
804.884	496
804.934	512
804.985	466
805.036	506
805.087	492
805.138	478
805.188	468
805.239	502
805.29	486
805.341	492
805.392	490
805.443	490
805.493	489.935
805.544	497.583
805.595	470.322
805.646	493.678
805.697	478.517
805.747	478.206
805.798	477.014
805.849	476.482
805.9	489.926
805.951	487.807
806.001	472.084
806.052	498.255
806.103	473.984
806.154	460.71
806.205	464.639
806.255	475.332
806.306	485.851
806.357	475.186
806.408	467.099
806.459	484.469
806.509	466.176
806.56	466.825
806.611	462.912
806.662	470.572
806.713	460.074
806.763	472.05
806.814	462.409
806.865	481.618
806.916	453.051
806.967	464.804
807.017	454.551
807.068	455.972
807.119	459.297
807.17	464.392
807.22	440.165
807.271	448.715
807.322	462.348
807.373	462.16
807.424	468.823
807.474	456.772
807.525	467.786
807.576	464.914
807.627	454.921
807.678	455.707
807.728	452.25
807.779	445.514
807.83	456.736
807.881	453.652
807.931	444.237
807.982	451.985
808.033	445.961
808.084	439.923
808.135	452.263
808.185	437.681
808.236	450.888
808.287	451.903
808.338	432.522
808.388	435.726
808.439	435.189
808.49	457.392
808.541	449.852
808.591	445.041
808.642	443.733
808.693	439.354
808.744	457.928
808.795	444.86
808.845	435.257
808.896	424.769
808.947	452.422
808.998	452.637
809.048	447.335
809.099	433.866
809.15	447.017
809.201	432.782
809.251	429.078
809.302	432.095
809.353	433.161
809.404	434.788
809.454	427.156
809.505	432.566
809.556	417.626
809.607	428.09
809.658	437.971
809.708	430.196
809.759	423.559
809.81	426.909
809.861	434.207
809.911	436.275
809.962	423.54
810.013	405.526
810.064	412.079
810.114	424.72
810.165	422.654
810.216	429.57
810.267	435.059
810.317	424.41
810.368	409.979
810.419	426.201
810.469	424.68
810.52	418.441
810.571	418.118
810.622	428.752
810.627	430
810.678	430
810.729	420
810.78	396
810.831	428
810.882	418
810.933	398
810.984	418
811.035	412
811.086	378
811.137	402
811.188	406
811.239	420
811.29	398
811.341	406
811.392	406
811.443	410
811.494	388
811.545	398
811.596	418
811.648	404
811.699	420
811.75	390
811.801	412
811.852	408
811.903	410
811.954	408
812.005	408
812.056	418
812.107	392
812.158	404
812.209	388
812.26	404
812.311	392
812.362	424
812.413	402
812.464	386
812.515	398
812.566	376
812.617	378
812.668	396
812.719	380
812.77	412
812.821	396
812.872	430
812.923	388
812.974	396
813.025	386
813.076	380
813.127	390
813.178	392
813.229	368
813.28	390
813.331	380
813.382	380
813.433	384
813.484	384
813.535	396
813.586	376
813.637	392
813.688	398
813.739	378
813.79	368
813.841	386
813.892	388
813.943	390
813.994	376
814.045	394
814.096	408
814.147	386
814.198	400
814.249	388
814.3	362
814.351	364
814.402	374
814.453	384
814.504	360
814.555	364
814.606	356
814.657	366
814.708	388
814.759	374
814.81	368
814.861	378
814.912	400
814.963	392
815.014	380
815.065	372
815.116	374
815.167	368
815.217	366
815.268	380
815.319	376
815.37	354
815.421	358
815.472	384
815.523	366
815.574	348
815.625	364
815.676	358
815.727	376
815.778	380
815.829	338
815.88	366
815.931	364
815.982	374
816.033	348
816.084	372
816.135	380
816.186	354
816.237	362
816.288	374
816.339	356
816.39	358
816.441	348
816.492	336
816.543	360
816.594	352
816.645	350
816.696	360
816.747	344
816.798	334
816.849	346
816.9	370
816.951	348
817.001	342
817.052	346
817.103	372
817.154	356
817.205	336
817.256	354
817.307	350
817.358	340
817.409	346
817.46	346
817.511	356
817.562	352
817.613	338
817.664	334
817.715	340
817.766	322
817.817	332
817.868	356
817.919	336
817.97	332
818.021	332
818.071	338
818.122	344
818.173	348
818.224	348
818.275	342
818.326	346
818.377	358
818.428	328
818.479	326
818.53	334
818.581	348
818.632	320
818.683	346
818.734	334
818.785	344
818.836	340
818.887	318
818.938	330
818.988	328
819.039	340
819.09	336
819.141	326
819.192	326
819.243	324
819.294	320
819.345	328
819.396	340
819.447	338
819.498	342
819.549	318
819.6	316
819.651	318
819.702	318
819.753	346
819.803	358
819.854	322
819.905	328
819.956	314
820.007	326
820.058	324
820.109	326
820.16	320
820.211	328
820.262	332
820.313	310
820.364	326
820.415	314
820.465	324
820.516	308
820.567	320
820.618	328
820.669	306
820.72	336
820.771	346
820.822	322
820.873	310
820.924	326
820.975	326
821.026	328
821.076	338
821.127	302
821.178	302
821.229	308
821.28	318
821.331	308
821.382	316
821.433	304
821.484	312
821.535	318
821.586	318
821.637	320
821.687	298
821.738	318
821.789	316
821.84	314
821.891	300
821.942	308
821.993	296
822.044	320
822.095	290
822.146	306
822.196	304
822.247	318
822.298	322
822.349	294
822.4	300
822.451	296
822.502	302
822.553	306
822.604	304
822.655	290
822.706	304
822.756	316
822.807	304
822.858	298
822.909	306
822.96	294
823.011	300
823.062	300
823.113	302
823.164	282
823.214	320
823.265	318
823.316	272
823.367	298
823.418	294
823.469	286
823.52	294
823.571	282
823.622	294
823.672	294
823.723	288
823.774	294
823.825	300
823.876	294
823.927	294
823.978	290
824.029	284
824.08	292
824.13	300
824.181	288
824.232	288
824.283	286
824.334	284
824.385	290
824.436	296
824.487	296
824.537	286
824.588	286
824.639	290
824.69	310
824.741	300
824.792	284
824.843	286
824.893	292
824.944	278
824.995	284
825.046	310
825.097	286
825.148	284
825.199	286
825.25	290
825.3	272
825.351	272
825.402	282
825.453	260
825.504	290
825.555	268
825.606	290
825.657	292
825.707	288
825.758	276
825.809	270
825.86	290
825.911	278
825.962	260
826.013	272
826.063	276
826.114	282
826.165	276
826.216	278
826.267	292
826.318	278
826.369	262
826.419	284
826.47	282
826.521	264
826.572	276
826.623	274
826.674	276
826.725	272
826.775	282
826.826	264
826.877	284
826.928	266
826.979	266
827.03	272
827.08	272
827.131	266
827.182	274
827.233	268
827.284	258
827.335	276
827.386	254
827.436	274
827.487	274
827.538	280
827.589	264
827.64	272
827.691	252
827.741	274
827.792	276
827.843	270
827.894	266
827.945	274
827.996	252
828.046	254
828.097	276
828.148	262
828.199	272
828.25	268
828.301	262
828.351	262
828.402	268
828.453	248
828.504	260
828.555	276
828.606	264
828.656	248
828.707	266
828.758	256
828.809	238
828.86	248
828.911	258
828.961	268
829.012	258
829.063	254
829.114	254
829.165	264
829.216	258
829.266	260
829.317	268
829.368	262
829.419	244
829.47	260
829.52	260
829.571	262
829.622	250
829.673	252
829.724	272
829.774	260
829.825	262
829.876	250
829.927	264
829.978	266
830.029	252
830.079	248
830.13	266
830.181	236
830.232	244
830.283	244
830.333	260
830.384	252
830.435	248
830.486	258
830.537	250
830.587	246
830.638	250
830.689	246
830.74	264
830.791	256
830.841	256
830.892	244
830.943	254
830.994	268
831.045	238
831.095	246
831.146	238
831.197	246
831.248	242
831.299	248
831.349	230
831.4	256
831.451	244
831.502	240
831.553	250
831.603	238
831.654	254
831.705	228
831.756	246
831.807	242
831.857	246
831.908	248
831.959	238
832.01	240
832.061	244
832.111	238
832.162	246
832.213	234
832.264	246
832.315	242
832.365	248
832.416	234
832.467	252
832.518	220
832.568	242
832.619	244
832.67	232
832.721	240
832.772	232
832.822	242
832.873	224
832.924	226
832.975	242
833.025	228
833.076	234
833.127	234
833.178	218
833.229	230
833.279	242
833.33	220
833.381	224
833.432	228
833.482	234
833.533	234
833.584	226
833.635	220
833.685	230
833.736	228
833.787	212
833.838	236
833.889	232
833.939	238
833.99	234
834.041	240
834.092	224
834.142	226
834.193	234
834.244	234
834.295	234
834.345	228
834.396	220
834.447	220
834.498	240
834.548	212
834.599	232
834.65	210
834.701	226
834.751	228
834.802	228
834.853	212
834.904	228
834.954	208
835.005	216
835.056	214
835.107	228
835.157	222
835.208	224
835.259	228
835.31	216
835.36	214
835.411	234
835.462	206
835.513	248
835.563	236
835.614	242
835.665	210
835.716	230
835.766	238
835.817	218
835.868	214
835.919	220
835.969	230
836.02	234
836.071	212
836.122	216
836.172	212
836.223	210
836.274	212
836.325	222
836.375	204
836.426	226
836.477	230
836.528	220
836.578	214
836.629	224
836.68	210
836.73	216
836.781	212
836.832	224
836.883	214
836.933	202
836.984	214
837.035	220
837.086	214
837.136	226
837.187	208
837.238	218
837.288	218
837.339	222
837.39	210
837.441	212
837.491	212
837.542	208
837.593	216
837.643	212
837.694	220
837.745	210
837.796	190
837.846	212
837.897	208
837.948	208
837.999	222
838.049	204
838.1	206
838.151	204
838.201	200
838.252	224
838.303	210
838.354	202
838.404	202
838.455	206
838.506	206
838.556	212
838.607	210
838.658	216
838.708	192
838.759	206
838.81	214
838.861	208
838.911	226
838.962	192
839.013	204
839.063	214
839.114	218
839.165	202
839.216	210
839.266	206
839.317	204
839.368	212
839.418	200
839.469	200
839.52	208
839.57	212
839.621	194
839.672	194
839.722	202
839.773	204
839.824	208
839.875	218
839.925	210
839.976	202
840.027	210
840.077	208
840.128	196
840.179	206
840.229	204
840.28	206
840.331	202
840.381	206
840.432	196
840.483	204
840.534	196
840.584	196
840.635	184
840.686	202
840.736	198
840.787	204
840.838	188
840.888	198
840.939	210
840.99	202
841.04	198
841.091	200
841.142	180
841.192	200
841.243	206
841.294	198
841.344	200
841.395	202
841.446	190
841.496	200
841.547	188
841.598	196
841.648	202
841.699	200
841.75	202
841.8	188
841.851	186
841.902	202
841.952	198
842.003	186
842.054	186
842.104	194
842.155	206
842.206	186
842.256	184
842.307	206
842.358	192
842.408	206
842.459	182
842.51	200
842.56	196
842.611	194
842.662	186
842.712	208
842.763	194
842.814	196
842.864	190
842.915	188
842.966	186
843.016	174
843.067	192
843.118	202
843.168	188
843.219	200
843.269	182
843.32	202
843.371	190
843.421	194
843.472	184
843.523	174
843.573	190
843.624	186
843.675	182
843.725	178
843.776	174
843.827	188
843.877	170
843.928	178
843.979	178
844.029	192
844.08	190
844.13	188
844.181	192
844.232	184
844.282	188
844.333	186
844.384	186
844.434	186
844.485	184
844.536	184
844.586	186
844.637	168
844.687	180
844.738	174
844.789	180
844.839	182
844.89	182
844.941	172
844.991	178
845.042	182
845.092	176
845.143	164
845.194	180
845.244	172
845.295	174
845.346	166
845.396	184
845.447	186
845.497	180
845.548	170
845.599	182
845.649	178
845.7	182
845.75	190
845.801	178
845.852	174
845.902	168
845.953	182
846.004	184
846.054	178
846.105	166
846.155	172
846.206	186
846.257	182
846.307	194
846.358	172
846.409	190
846.459	178
846.51	162
846.56	188
846.611	190
846.661	172
846.712	180
846.763	182
846.813	174
846.864	184
846.915	166
846.965	156
847.016	162
847.066	164
847.117	164
847.168	170
847.218	176
847.269	182
847.319	172
847.37	168
847.421	178
847.471	160
847.522	166
847.572	140
847.623	176
847.674	172
847.724	174
847.775	190
847.825	178
847.876	168
847.926	166
847.977	164
848.028	176
848.078	178
848.129	164
848.179	152
848.23	166
848.281	146
848.331	162
848.382	172
848.432	164
848.483	162
848.534	164
848.584	160
848.635	164
848.685	156
848.736	170
848.786	188
848.837	152
848.888	170
848.938	152
848.989	148
849.039	170
849.09	168
849.14	156
849.191	146
849.242	164
849.292	168
849.343	142
849.393	148
849.444	166
849.494	168
849.545	170
849.596	158
849.646	154
849.697	172
849.747	164
849.798	158
849.848	152
849.899	150
849.95	158
850	170
850.051	180
850.101	176
850.152	162
850.202	162
850.253	156
850.303	152
850.354	156
850.405	156
850.455	158
850.506	164
850.556	160
850.607	164
850.657	166
850.708	160
850.758	160
850.809	152
850.86	170
850.91	160
850.961	164
851.011	152
851.062	152
851.112	152
851.163	152
851.213	172
851.264	154
851.314	164
851.365	160
851.416	158
851.466	144
851.517	154
851.567	170
851.618	154
851.668	172
851.719	158
851.769	156
851.82	152
851.87	166
851.921	158
851.971	152
852.022	164
852.073	142
852.123	158
852.174	158
852.224	164
852.275	168
852.325	152.02
852.376	159.941
852.426	157.995
852.477	146.066
852.527	145.736
852.578	146.548
852.628	138.392
852.679	142.894
852.729	152.338
852.78	156.879
852.831	137.612
852.881	150.388
852.932	146.759
852.982	150.967
853.033	135.396
853.083	157.327
853.134	153.573
853.184	142.1
853.235	146.855
853.285	163.749
853.336	153.334
853.386	149.065
853.437	137.842
853.487	153.441
853.538	153.539
853.588	153.41
853.639	156.638
853.689	156.011
853.74	150.788
853.79	147.77
853.841	155.15
853.891	148.733
853.942	151.805
853.992	137.408
854.043	143.202
854.093	147.188
854.144	151.206
854.194	150.982
854.245	141.39
854.295	146.805
854.346	140.113
854.396	141.507
854.447	146.143
854.497	154.572
854.548	144.973
854.598	139.387
854.649	150.056
854.699	150.5
854.75	144.711
854.8	142.54
854.851	135.05
854.901	140.137
854.952	140.937
855.002	149.139
855.053	141.818
855.103	144.966
855.154	141.304
855.204	154.257
855.255	145.061
855.305	149.323
855.356	143.63
855.406	140.261
855.457	141.724
855.507	145.513
855.558	138.857
855.608	145.867
855.659	140.168
855.709	135.485
855.76	144.12
855.81	142.324
855.861	129.356
855.911	130.988
855.962	141.984
856.012	138.449
856.063	143.339
856.113	138.065
856.164	144.892
856.214	137.284
856.265	140.14
856.315	140.994
856.366	143.867
856.416	137.101
856.467	132.474
856.517	142.282
856.568	139.192
856.618	138.036
856.668	133.896
856.719	129.678
856.769	132.777
856.82	135.139
856.87	136.38
856.921	127.384
856.971	129.245
857.022	137.463
857.072	138.01
857.123	139.045
857.173	139.183
857.224	137.201
857.274	132.739
857.325	131.252
857.352	128
857.403	148
857.453	142
857.504	132
857.555	140
857.606	142
857.656	130
857.707	136
857.758	128
857.809	142
857.859	140
857.91	126
857.961	134
858.012	146
858.063	132
858.113	132
858.164	126
858.215	136
858.266	140
858.316	138
858.367	142
858.418	136
858.469	146
858.519	144
858.57	126
858.621	142
858.672	132
858.722	144
858.773	120
858.824	144
858.875	138
858.925	140
858.976	138
859.027	120
859.078	122
859.128	130
859.179	138
859.23	132
859.281	130
859.331	132
859.382	130
859.433	132
859.483	124
859.534	132
859.585	126
859.636	128
859.686	134
859.737	134
859.788	146
859.839	130
859.889	128
859.94	124
859.991	134
860.042	146
860.092	136
860.143	132
860.194	132
860.245	122
860.295	126
860.346	118
860.397	130
860.447	128
860.498	138
860.549	128
860.6	122
860.65	118
860.701	124
860.752	132
860.802	130
860.853	132
860.904	120
860.955	142
861.005	114
861.056	126
861.107	122
861.158	124
861.208	126
861.259	134
861.31	116
861.36	132
861.411	126
861.462	132
861.513	124
861.563	134
861.614	136
861.665	128
861.715	124
861.766	136
861.817	122
861.868	108
861.918	126
861.969	128
862.02	118
862.07	128
862.121	118
862.172	118
862.223	122
862.273	120
862.324	120
862.375	122
862.425	134
862.476	128
862.527	112
862.577	126
862.628	120
862.679	132
862.73	112
862.78	128
862.831	122
862.882	126
862.932	120
862.983	128
863.034	122
863.084	120
863.135	128
863.186	132
863.237	130
863.287	116
863.338	122
863.389	126
863.439	126
863.49	126
863.541	120
863.591	106
863.642	126
863.693	126
863.744	126
863.794	124
863.845	114
863.896	136
863.946	114
863.997	124
864.048	122
864.098	122
864.149	122
864.2	114
864.25	124
864.301	118
864.352	114
864.402	118
864.453	124
864.504	122
864.555	122
864.605	106
864.656	120
864.707	118
864.757	110
864.808	122
864.859	118
864.909	124
864.96	120
865.011	116
865.061	122
865.112	120
865.163	118
865.213	106
865.264	122
865.315	112
865.365	124
865.416	124
865.467	116
865.517	122
865.568	114
865.619	124
865.669	112
865.72	120
865.771	124
865.821	122
865.872	112
865.923	126
865.973	102
866.024	112
866.075	114
866.125	116
866.176	108
866.227	116
866.277	116
866.328	118
866.379	118
866.429	112
866.48	106
866.531	126
866.581	108
866.632	120
866.683	112
866.733	120
866.784	120
866.835	110
866.885	118
866.936	124
866.987	120
867.037	104
867.088	104
867.138	118
867.189	122
867.24	120
867.29	108
867.341	116
867.392	114
867.442	116
867.493	108
867.544	124
867.594	116
867.645	116
867.696	112
867.746	116
867.797	114
867.848	116
867.898	114
867.949	120
867.999	114
868.05	114
868.101	120
868.151	116
868.202	104
868.253	116
868.303	110
868.354	110
868.405	112
868.455	108
868.506	106
868.556	124
868.607	110
868.658	112
868.708	116
868.759	114
868.81	110
868.86	108
868.911	102
868.961	122
869.012	116
869.063	110
869.113	114
869.164	110
869.215	106
869.265	112
869.316	116
869.367	108
869.417	110
869.468	108
869.518	112
869.569	120
869.62	98
869.67	116
869.721	102
869.771	108
869.822	108
869.873	110
869.923	112
869.974	112
870.025	100
870.075	110
870.126	108
870.176	104
870.227	110
870.278	114
870.328	110
870.379	106
870.43	100
870.48	112
870.531	112
870.581	122
870.632	106
870.683	104
870.733	106
870.784	114
870.834	98
870.885	106
870.936	100
870.986	108
871.037	102
871.087	100
871.138	114
871.189	102
871.239	108
871.29	106
871.34	104
871.391	116
871.442	108
871.492	106
871.543	116
871.593	110
871.644	108
871.695	102
871.745	110
871.796	114
871.846	102
871.897	108
871.948	112
871.998	104
872.049	94
872.099	112
872.15	100
872.201	110
872.251	96
872.302	106
872.352	102
872.403	114
872.453	104
872.504	98
872.555	100
872.605	104
872.656	110
872.706	96
872.757	112
872.808	100
872.858	106
872.909	102
872.959	98
873.01	100
873.06	102
873.111	92
873.162	100
873.212	94
873.263	90
873.313	106
873.364	98
873.415	104
873.465	96
873.516	102
873.566	104
873.617	110
873.667	88
873.718	102
873.769	98
873.819	102
873.87	106
873.92	106
873.971	90
874.021	108
874.072	102
874.123	100
874.173	96
874.224	108
874.274	108
874.325	96
874.375	96
874.426	102
874.477	96
874.527	92
874.578	98
874.628	108
874.679	102
874.729	96
874.78	104
874.83	98
874.881	98
874.932	106
874.982	90
875.033	102
875.083	98
875.134	106
875.184	96
875.235	98
875.285	98
875.336	96
875.387	100
875.437	102
875.488	96
875.538	98
875.589	92
875.639	92
875.69	92
875.74	102
875.791	104
875.841	98
875.892	110
875.943	90
875.993	98
876.044	88
876.094	96
876.145	92
876.195	80
876.246	86
876.296	96
876.347	92
876.397	98
876.448	108
876.499	94
876.549	94
876.6	88
876.65	102
876.701	98
876.751	94
876.802	88
876.852	94
876.903	96
876.953	90
877.004	96
877.054	100
877.105	114
877.155	90
877.206	96
877.257	98
877.307	90
877.358	82
877.408	94
877.459	108
877.509	106
877.56	84
877.61	96
877.661	90
877.711	90
877.762	90
877.812	98
877.863	102
877.913	80
877.964	98
878.014	80
878.065	96
878.115	94
878.166	100
878.216	86
878.267	108
878.318	86
878.368	102
878.419	90
878.469	88
878.52	92
878.57	96
878.621	88
878.671	104
878.722	92
878.772	98
878.823	92
878.873	96
878.924	90
878.974	94
879.025	84
879.075	96
879.126	86
879.176	94
879.227	86
879.277	98
879.328	86
879.378	88
879.429	102
879.479	92
879.53	98
879.58	90
879.631	84
879.681	98
879.732	96
879.782	94
879.833	82
879.883	90
879.934	90
879.984	90
880.035	94
880.085	90
880.136	84
880.186	92
880.237	90
880.287	96
880.338	92
880.388	98
880.439	88
880.489	90
880.54	90
880.59	92
880.641	88
880.691	76
880.742	82
880.792	88
880.842	96
880.893	96
880.943	86
880.994	94
881.044	86
881.095	86
881.145	82
881.196	80
881.246	76
881.297	88
881.347	90
881.398	88
881.448	82
881.499	102
881.549	80
881.6	82
881.65	92
881.701	90
881.751	80
881.802	86
881.852	86
881.902	86
881.953	90
882.003	88
882.054	98
882.104	88
882.155	88
882.205	80
882.256	84
882.306	88
882.357	82
882.407	84
882.458	90
882.508	88
882.559	88
882.609	82
882.659	88
882.71	80
882.76	80
882.811	86
882.861	72
882.912	92
882.962	82
883.013	82
883.063	92
883.114	84
883.164	82
883.214	82
883.265	76
883.315	92
883.366	84
883.416	86
883.467	86
883.517	84
883.568	92
883.618	84
883.669	86
883.719	88
883.769	76
883.82	94
883.87	92
883.921	90
883.971	78
884.022	82
884.072	88
884.123	94
884.173	80
884.223	94
884.274	84
884.324	94
884.375	84
884.425	90
884.476	78
884.526	86
884.577	82
884.627	82
884.677	82
884.728	80
884.778	80
884.829	86
884.879	72
884.93	84
884.98	80
885.03	76
885.081	78
885.131	76
885.182	82
885.232	88
885.283	74
885.333	96
885.383	80
885.434	86
885.484	64
885.535	84
885.585	80
885.635	78
885.686	76
885.736	88
885.787	88
885.837	74
885.888	66
885.938	82
885.988	86
886.039	82
886.089	76
886.14	82
886.19	74
886.241	78
886.291	76
886.341	74
886.392	82
886.442	72
886.493	76
886.543	88
886.593	92
886.644	82
886.694	82
886.745	84
886.795	78
886.845	84
886.896	82
886.946	82
886.997	72
887.047	72
887.097	74
887.148	86
887.198	86
887.249	76
887.299	82
887.349	80
887.4	80
887.45	74
887.501	76
887.551	90
887.602	84
887.652	74
887.702	84
887.753	72
887.803	76
887.853	86
887.904	78
887.954	82
888.005	84
888.055	80
888.105	96
888.156	84
888.206	66
888.257	80
888.307	72
888.357	88
888.408	84
888.458	78
888.509	80
888.559	82
888.609	82
888.66	72
888.71	72
888.76	66
888.811	80
888.861	80
888.912	78
888.962	80
889.012	78
889.063	78
889.113	70
889.163	78
889.214	78
889.264	72
889.315	70
889.365	66
889.415	66
889.466	80
889.516	72
889.566	80
889.617	78
889.667	76
889.718	78
889.768	72
889.818	76
889.869	74
889.919	64
889.969	84
890.02	72
890.07	78
890.12	72
890.171	74
890.221	76
890.272	80
890.322	68
890.372	74
890.423	62
890.473	68
890.523	66
890.574	78
890.624	82
890.674	68
890.725	78
890.775	82
890.826	68
890.876	74
890.926	68
890.977	72
891.027	78
891.077	68
891.128	56
891.178	80
891.228	74
891.279	76
891.329	74
891.379	76
891.43	74
891.48	64
891.53	72
891.581	68
891.631	78
891.681	72
891.732	66
891.782	64
891.832	72
891.883	78
891.933	60
891.983	72
892.034	66
892.084	70
892.134	62
892.185	74
892.235	66
892.286	62
892.336	78
892.386	76
892.437	64
892.487	70
892.537	62
892.587	76
892.638	72
892.688	76
892.738	72
892.789	74
892.839	66
892.889	70
892.94	64
892.99	76
893.04	70
893.091	64
893.141	76
893.191	74
893.242	74
893.292	66
893.342	64
893.393	70
893.443	72
893.493	64
893.544	64
893.594	72
893.644	76
893.695	70
893.745	68
893.795	74
893.846	70
893.896	62
893.946	64
893.996	74
894.047	66
894.097	66
894.147	54
894.198	68
894.248	60
894.298	64
894.349	58
894.399	66
894.449	68
894.5	70
894.55	64
894.6	68
894.65	66
894.701	66
894.751	74
894.801	76
894.852	64
894.902	62
894.952	58
895.003	62
895.053	76
895.103	66
895.153	70
895.204	68
895.254	64
895.304	70
895.355	64
895.405	72
895.455	60
895.505	66
895.556	66
895.606	70
895.656	68
895.707	68
895.757	74
895.807	70
895.858	66
895.908	66
895.958	68
896.008	70
896.059	58
896.109	64
896.159	54
896.21	68
896.26	74
896.31	58
896.36	60
896.411	58
896.461	64
896.511	62
896.561	58
896.612	68
896.662	62
896.712	66
896.763	56
896.813	60
896.863	70
896.913	52
896.964	58
897.014	70
897.064	66
897.115	46
897.165	58
897.215	62
897.265	64
897.316	64
897.366	70
897.416	64
897.466	66
897.517	58
897.567	66
897.617	58
897.667	56
897.718	60
897.768	66
897.818	54
897.868	72
897.919	60
897.969	52
898.019	64
898.069	64
898.12	62
898.17	58
898.22	70
898.27	66
898.321	58
898.371	56
898.421	62
898.471	60
898.522	56
898.572	64
898.622	62
898.672	70
898.723	62
898.773	60
898.823	66
898.873	58
898.924	58
898.974	56
899.024	58
899.074	60
899.125	65
899.175	64
899.225	56
899.275	58
899.326	72
899.376	56
899.426	62
899.476	60
899.527	62
899.577	58
899.627	64
899.677	58
899.728	54
899.778	52
899.828	66
899.878	62
899.928	52
899.979	56
