#Acq. time (s)=	3
#Accumulations=	2
#Range (nm)=	520...900
#Windows=	8
#Auto scanning=	Off
#Autofocus=	Off
#AutoExposure=	Off
#Spike filter=	Off
#Delay time (s)=	0
#Binning=	1
#Readout mode=	Signal
#DeNoise=	Off
#ICS correction=	Off
#Dark correction=	Off
#Inst. Process=	Off
#Detector temperature (°C)=	-59.98
#Instrument=	LabRAM HR Evol
#Detector=	Syncerity OE
#Objective=	x50_VIS
#Grating=	600 (500nm)
#ND Filter=	25%
#Laser=	514nm_Edge
#Hole=	199.981
#Range=	Visible
#StageXY=	Marzhauser
#StageZ=	Marzhauser
#X (µm)=	8995.1
#Y (µm)=	-4227
#Z (µm)=	-261.6
#Full time(mm:ss)=	1:32
#Project=	
#Sample=	
#Site=	
#Title=	PL_M5_280424
#Remark=	
#Date=	06.05.2024 16:44
#Acquired=	06.05.2024 16:44:15
520.044	36
520.097	35
520.149	41
520.201	42
520.254	33
520.306	39
520.359	44
520.411	40
520.464	38
520.516	38
520.569	46
520.621	39
520.674	37
520.726	38
520.778	39
520.831	46
520.883	49
520.936	35
520.988	44
521.041	42
521.093	40
521.146	40
521.198	42
521.25	47
521.303	48
521.355	39
521.408	43
521.46	47
521.513	36
521.565	42
521.617	46
521.67	45
521.722	40
521.775	38
521.827	43
521.88	40
521.932	38
521.984	45
522.037	46
522.089	47
522.142	44
522.194	41
522.247	49
522.299	42
522.352	41
522.404	44
522.456	46
522.509	51
522.561	39
522.614	38
522.666	42
522.719	42
522.771	42
522.823	40
522.876	38
522.928	41
522.981	43
523.033	36
523.086	45
523.138	44
523.19	45
523.243	41
523.295	53
523.348	47
523.4	50
523.453	39
523.505	50
523.557	41
523.61	39
523.662	39
523.715	44
523.767	39
523.82	41
523.872	34
523.924	47
523.977	38
524.029	36
524.082	39
524.134	39
524.186	46
524.239	41
524.291	38
524.344	46
524.396	46
524.449	47
524.501	45
524.553	48
524.606	47
524.658	46
524.711	36
524.763	47
524.815	51
524.868	36
524.92	43
524.973	39
525.025	51
525.078	47
525.13	42
525.182	48
525.235	43
525.287	43
525.34	49
525.392	44
525.444	46
525.497	49
525.549	43
525.602	44
525.654	47
525.706	43
525.759	39
525.811	42
525.864	46
525.916	43
525.969	44
526.021	42
526.073	47
526.126	46
526.178	39
526.231	45
526.283	53
526.335	47
526.388	41
526.44	49
526.493	38
526.545	39
526.597	33
526.65	45
526.702	42
526.755	43
526.807	43
526.859	50
526.912	47
526.964	43
527.017	46
527.069	48
527.121	55
527.174	52
527.226	37
527.279	47
527.331	44
527.383	41
527.436	44
527.488	40
527.54	49
527.593	38
527.645	42
527.698	44
527.75	54
527.802	43
527.855	44
527.907	49
527.96	44
528.012	50
528.064	38
528.117	53
528.169	49
528.222	39
528.274	38
528.326	48
528.379	44
528.431	46
528.484	45
528.536	50
528.588	49
528.641	49
528.693	47
528.745	51
528.798	44
528.85	43
528.903	42
528.955	38
529.007	45
529.06	40
529.112	37
529.164	41
529.217	46
529.269	51
529.322	47
529.374	52
529.426	49
529.479	45
529.531	34
529.584	41
529.636	43
529.688	40
529.741	40
529.793	43
529.845	48
529.898	41
529.95	39
530.003	44
530.055	46
530.107	47
530.16	43
530.212	48
530.264	44
530.317	37
530.369	41
530.422	42
530.474	47
530.526	47
530.579	50
530.631	50
530.683	39
530.736	47
530.788	38
530.841	48
530.893	43
530.945	44
530.998	43
531.05	47
531.102	39
531.155	43
531.207	33
531.259	48
531.312	51
531.364	45
531.417	46
531.469	49
531.521	44
531.574	46
531.626	36
531.678	44
531.731	49
531.783	41
531.835	49
531.888	52
531.94	49
531.992	48
532.045	39
532.097	39
532.15	43
532.202	45
532.254	47
532.307	44
532.359	48
532.411	42
532.464	41
532.516	49
532.568	50
532.621	50
532.673	48
532.726	48
532.778	46
532.83	53
532.883	40
532.935	43
532.987	52
533.04	55
533.092	49
533.144	55
533.197	52
533.249	50
533.301	44
533.354	39
533.406	54
533.458	54
533.511	50
533.563	53
533.615	50
533.668	47
533.72	43
533.773	51
533.825	54
533.877	47
533.93	48
533.982	48
534.034	52
534.087	47
534.139	50
534.191	46
534.244	49
534.296	54
534.348	54
534.401	56
534.453	59
534.505	56
534.558	59
534.61	66
534.662	66
534.715	61
534.767	63
534.819	66
534.872	70
534.924	70
534.976	60
535.029	69
535.081	69
535.133	63
535.186	64
535.238	75
535.29	75
535.343	68
535.395	64
535.447	74
535.5	65
535.552	70
535.604	71
535.657	65
535.709	62
535.761	67
535.814	70
535.866	61
535.918	60
535.971	53
536.023	59
536.075	66
536.128	65
536.18	63
536.232	63
536.285	50
536.337	63
536.389	61
536.442	61
536.494	52
536.546	60
536.599	60
536.651	53
536.703	57
536.755	58
536.808	63
536.86	54
536.912	55
536.965	59
537.017	60
537.069	46
537.122	54
537.174	58
537.226	59
537.279	53
537.331	57
537.383	62
537.436	55
537.488	55
537.54	54
537.593	59
537.645	58
537.697	53
537.75	55
537.802	59
537.854	57
537.906	54
537.959	49
538.011	50
538.063	57
538.116	49
538.168	60
538.22	63
538.273	59
538.325	55
538.377	50
538.43	54
538.482	53
538.534	53
538.586	60
538.639	61
538.691	63
538.743	51
538.796	57
538.848	55
538.9	49
538.953	50
539.005	63
539.057	65
539.109	60
539.162	56
539.214	53
539.266	58
539.319	57
539.371	56
539.423	63
539.476	68
539.528	59
539.58	58
539.633	51
539.685	55
539.737	60
539.789	52
539.842	58
539.894	63
539.946	60
539.999	57
540.051	54
540.103	57
540.155	58
540.208	59
540.26	67
540.312	64
540.365	58
540.417	51
540.469	56
540.521	56
540.574	63
540.626	57
540.678	53
540.731	70
540.783	64
540.835	54
540.888	60
540.94	56
540.992	61
541.044	57
541.097	56
541.149	68
541.201	58
541.254	48
541.306	66
541.358	60
541.41	62
541.463	63
541.515	63
541.567	65
541.62	64
541.672	51
541.724	57
541.776	64
541.829	70
541.881	64
541.933	67
541.985	71
542.038	56
542.09	63
542.142	55
542.195	64
542.247	59
542.299	63
542.351	58
542.404	59
542.456	58
542.508	54
542.56	57
542.613	66
542.665	64
542.717	63
542.77	63
542.822	63
542.874	70
542.926	66
542.979	66
543.031	71
543.083	66
543.135	55
543.188	59
543.24	63
543.292	72
543.344	64
543.397	67
543.449	66
543.501	71
543.554	64
543.606	63
543.658	73
543.71	70
543.763	72
543.815	63
543.867	68
543.919	73
543.972	67
544.024	75
544.076	78
544.128	72
544.181	76
544.233	67
544.285	69
544.337	72
544.39	70
544.442	66
544.494	75
544.547	72
544.599	64
544.651	65
544.703	71
544.755	70
544.808	74
544.86	74
544.912	71
544.965	77
545.017	76
545.069	65
545.121	80
545.174	81
545.226	83
545.278	61
545.33	74
545.383	80
545.435	79
545.487	70
545.539	84
545.591	78
545.644	69
545.696	61
545.748	75
545.8	82
545.853	75
545.905	77
545.957	77
546.009	68
546.062	83
546.114	72
546.166	76
546.218	82
546.271	77
546.323	77
546.375	85
546.427	83
546.48	74
546.532	75
546.584	82
546.636	82
546.689	82
546.741	77
546.793	80
546.845	70
546.898	79
546.95	80
547.002	83
547.054	83
547.106	90
547.159	83
547.211	79
547.263	91
547.315	83
547.368	76
547.42	89
547.472	83
547.524	97
547.577	77
547.629	93
547.681	90
547.733	88
547.785	80
547.838	92
547.89	86
547.942	87
547.994	84
548.047	90
548.099	86
548.151	86
548.203	84
548.255	95
548.308	96
548.36	90
548.412	93
548.464	95
548.517	88
548.569	87
548.621	87
548.673	88
548.725	106
548.778	95
548.83	95
548.882	89
548.934	91
548.987	95
549.039	86
549.091	96
549.143	96
549.195	102
549.248	96
549.3	99
549.352	98
549.404	95
549.456	96
549.509	96
549.561	111
549.613	107
549.665	96
549.718	105
549.77	110
549.822	101
549.874	94
549.926	101
549.979	110
550.031	118
550.083	109
550.135	119
550.187	111
550.24	105
550.292	99
550.344	110
550.396	119
550.448	125
550.501	101
550.553	120
550.605	118
550.657	123
550.709	105
550.762	119
550.814	126
550.866	123
550.918	116
550.97	120
551.023	131
551.075	127
551.127	124
551.179	134
551.231	149
551.284	133
551.336	144
551.388	139
551.44	148
551.492	152
551.545	151
551.597	158
551.649	177
551.701	192
551.753	170
551.806	195
551.858	212
551.91	222
551.962	234
552.014	245
552.067	256
552.119	297
552.171	322
552.223	368
552.275	431
552.327	550
552.38	649
552.432	976
552.484	1824
552.536	4198
552.588	7989
552.641	14094
552.693	24788
552.745	39158
552.797	29513
552.849	12712
552.901	4269
552.954	1764
553.006	1067
553.058	723
553.11	539
553.162	436
553.215	371
553.267	322
553.319	281
553.371	273
553.423	243
553.475	227
553.528	209
553.58	199
553.632	190
553.684	191
553.736	182
553.788	172
553.841	178
553.893	167
553.945	162
553.997	161
554.049	160
554.102	163
554.154	155
554.206	153
554.258	150
554.31	152
554.362	142
554.414	152
554.467	137
554.519	138
554.571	138
554.623	141
554.675	140
554.727	140
554.78	132
554.832	149
554.884	132
554.936	139
554.988	137
555.04	137
555.093	135
555.145	141
555.197	143
555.249	143
555.301	129
555.353	138
555.406	146
555.458	150
555.51	120
555.562	134
555.614	146
555.666	133
555.719	137
555.771	147
555.823	157
555.875	148
555.927	142
555.979	139
556.031	138
556.084	144
556.136	128
556.188	149
556.24	159
556.292	144
556.344	142
556.396	151
556.449	147
556.501	130
556.553	140
556.605	141
556.657	140
556.709	152
556.762	138
556.814	146
556.866	153
556.918	141
556.97	145
557.022	146
557.074	151
557.127	147
557.179	147
557.231	152
557.283	140
557.335	154
557.387	155
557.439	142
557.492	150
557.544	154
557.596	146
557.648	138
557.7	160
557.752	165
557.804	147
557.856	163
557.909	171
557.961	159
558.013	158
558.065	157
558.117	162
558.169	160
558.221	150
558.273	156
558.326	173
558.378	160
558.43	176
558.482	161
558.534	174
558.586	175
558.638	169
558.691	166
558.743	156
558.795	166
558.847	160
558.899	161
558.951	154
559.003	175
559.055	173
559.108	158
559.16	169
559.212	163
559.264	178
559.316	171
559.368	168
559.42	168
559.472	159
559.525	174
559.577	168
559.629	167
559.681	161
559.733	158
559.785	174
559.837	172
559.889	171
559.941	173
559.994	174
560.046	191
560.098	165
560.15	180
560.202	173
560.254	191
560.306	171
560.358	181
560.41	186
560.463	183
560.515	179
560.567	177
560.619	178
560.671	194
560.723	185
560.775	188
560.827	193
560.879	190
560.932	190
560.984	191
561.036	200
561.088	187
561.14	192
561.192	197
561.244	191
561.296	206
561.348	187
561.4	191
561.453	202
561.505	215
561.557	179
561.609	189
561.661	212
561.713	195
561.765	193
561.817	192
561.869	211
561.921	192
561.974	192
562.026	202
562.078	197
562.13	202
562.182	197
562.234	205
562.286	216
562.338	219
562.39	209
562.442	202
562.494	201
562.547	218
562.599	199
562.651	202
562.703	216
562.755	210
562.807	214
562.859	220
562.911	216
562.963	208
563.015	216
563.067	224
563.12	222
563.172	225
563.224	218
563.276	218
563.328	246
563.38	219
563.432	217
563.484	216
563.536	232
563.588	233
563.64	227
563.692	230
563.744	248
563.797	228
563.849	251
563.901	246
563.953	257
564.005	259
564.057	250
564.109	249
564.161	267
564.213	265
564.265	260
564.317	258
564.369	259
564.421	253
564.474	249
564.526	232
564.578	252
564.63	253
564.682	252
564.734	256
564.786	245
564.838	256
564.89	251
564.942	253
564.994	259
565.046	259
565.098	252
565.15	256
565.202	262
565.255	265
565.307	254
565.359	249
565.411	266
565.463	254
565.515	246
565.567	250
565.619	255
565.671	264
565.723	257
565.775	251
565.827	268
565.879	276
565.931	289
565.983	271
566.035	266
566.087	255
566.139	276
566.192	254
566.244	262
566.296	266
566.348	274
566.4	261
566.452	276
566.504	285
566.556	275
566.608	278
566.66	284
566.712	263
566.764	272
566.816	278
566.868	266
566.92	287
566.972	289
567.024	284
567.076	284
567.128	279
567.18	266
567.232	294
567.285	303
567.337	294
567.389	299
567.441	275
567.493	277
567.545	294
567.597	291
567.649	278
567.701	308
567.753	288
567.805	298
567.857	267
567.909	298
567.961	300
568.013	301
568.065	318
568.117	315.92
568.169	311.892
568.221	310.698
568.273	310.431
568.325	307.766
568.377	304.929
568.429	308.939
568.481	299.885
568.533	303.19
568.585	311.007
568.637	305.212
568.69	302.716
568.742	323.761
568.794	297.433
568.846	315.484
568.898	306.977
568.95	323.317
569.002	314.054
569.054	317.351
569.106	309.799
569.158	324.116
569.21	324.423
569.262	324.06
569.314	319.861
569.366	324.49
569.418	335.953
569.47	333.097
569.522	322.977
569.574	332.355
569.626	333.692
569.678	334.777
569.73	333.293
569.782	335.889
569.834	346.614
569.886	347.43
569.938	346.086
569.99	346.018
570.042	346.734
570.094	350.08
570.146	346.858
570.198	345.573
570.25	361.904
570.302	358.69
570.354	356.154
570.406	367.016
570.458	354.84
570.51	357.473
570.562	362.576
570.614	354.979
570.666	364.558
570.718	372.54
570.77	375.754
570.822	392.986
570.874	382.405
570.926	379.289
570.978	387.061
571.03	394.839
571.082	394.739
571.134	397.292
571.186	386.371
571.238	392.857
571.29	394.982
571.342	404.823
571.394	408.097
571.446	408.335
571.498	408.721
571.55	411.781
571.602	427.438
571.654	429.356
571.706	416.479
571.758	433.784
571.81	432.169
571.862	440.634
571.914	445.305
571.966	446.034
572.018	438.468
572.07	456.833
572.122	464.151
572.174	454.764
572.226	467.757
572.278	478.769
572.33	467.022
572.382	474.125
572.434	476.731
572.486	475.898
572.538	483.125
572.59	487.243
572.642	490.56
572.694	520.129
572.746	511.431
572.798	534.853
572.85	527.478
572.902	540.35
572.954	548.743
573.006	542.502
573.058	553.711
573.11	552.903
573.162	572.416
573.214	583.754
573.266	584.828
573.312	583
573.364	587
573.416	601
573.469	606
573.521	622
573.573	624
573.625	622
573.677	621
573.73	657
573.782	653
573.834	690
573.886	688
573.938	689
573.991	686
574.043	718
574.095	726
574.147	746
574.199	751
574.252	751
574.304	778
574.356	792
574.408	815
574.46	792
574.513	847
574.565	837
574.617	866
574.669	873
574.721	872
574.774	919
574.826	914
574.878	940
574.93	961
574.982	945
575.035	977
575.087	1010
575.139	1011
575.191	1002
575.243	1024
575.296	1038
575.348	1053
575.4	1081
575.452	1075
575.504	1079
575.556	1086
575.609	1103
575.661	1112
575.713	1114
575.765	1107
575.817	1122
575.87	1112
575.922	1123
575.974	1107
576.026	1124
576.078	1106
576.131	1100
576.183	1110
576.235	1105
576.287	1076
576.339	1096
576.391	1124
576.444	1047
576.496	1087
576.548	1046
576.6	1037
576.652	1034
576.705	1039
576.757	1026
576.809	1012
576.861	1005
576.913	1015
576.965	976
577.018	961
577.07	956
577.122	947
577.174	932
577.226	906
577.279	919
577.331	904
577.383	869
577.435	908
577.487	860
577.539	874
577.592	856
577.644	816
577.696	850
577.748	850
577.8	828
577.852	832
577.905	792
577.957	798
578.009	770
578.061	805
578.113	768
578.165	785
578.218	769
578.27	766
578.322	759
578.374	750
578.426	739
578.478	730
578.531	710
578.583	743
578.635	758
578.687	739
578.739	737
578.791	718
578.844	703
578.896	722
578.948	717
579	731
579.052	715
579.104	701
579.157	702
579.209	690
579.261	709
579.313	714
579.365	729
579.417	694
579.47	718
579.522	718
579.574	712
579.626	710
579.678	692
579.73	707
579.782	703
579.835	729
579.887	701
579.939	703
579.991	717
580.043	719
580.095	709
580.148	703
580.2	706
580.252	699
580.304	726
580.356	710
580.408	716
580.46	715
580.513	709
580.565	715
580.617	705
580.669	698
580.721	692
580.773	722
580.826	736
580.878	734
580.93	720
580.982	714
581.034	704
581.086	711
581.138	715
581.191	716
581.243	712
581.295	699
581.347	726
581.399	726
581.451	734
581.503	727
581.556	741
581.608	746
581.66	714
581.712	749
581.764	753
581.816	763
581.868	731
581.92	755
581.973	747
582.025	744
582.077	753
582.129	763
582.181	719
582.233	725
582.285	743
582.338	762
582.39	764
582.442	757
582.494	753
582.546	768
582.598	743
582.65	763
582.703	772
582.755	786
582.807	780
582.859	785
582.911	794
582.963	792
583.015	775
583.067	787
583.12	803
583.172	793
583.224	775
583.276	806
583.328	779
583.38	821
583.432	825
583.484	807
583.537	795
583.589	816
583.641	789
583.693	824
583.745	811
583.797	805
583.849	839
583.901	850
583.953	817
584.006	836
584.058	819
584.11	843
584.162	854
584.214	865
584.266	858
584.318	854
584.37	843
584.423	836
584.475	878
584.527	862
584.579	882
584.631	857
584.683	892
584.735	843
584.787	889
584.839	890
584.892	880
584.944	909
584.996	906
585.048	908
585.1	913
585.152	895
585.204	917
585.256	926
585.308	904
585.361	899
585.413	929
585.465	920
585.517	931
585.569	944
585.621	939
585.673	936
585.725	946
585.777	955
585.83	978
585.882	956
585.934	965
585.986	965
586.038	942
586.09	963
586.142	974
586.194	975
586.246	979
586.298	971
586.351	990
586.403	962
586.455	941
586.507	997
586.559	974
586.611	986
586.663	974
586.715	989
586.767	983
586.819	985
586.872	974
586.924	988
586.976	993
587.028	991
587.08	999
587.132	974
587.184	1005
587.236	976
587.288	1022
587.34	1025
587.392	1006
587.445	1021
587.497	1030
587.549	1031
587.601	1012
587.653	996
587.705	1028
587.757	1051
587.809	1014
587.861	1033
587.913	1015
587.965	1034
588.018	1028
588.07	1036
588.122	1027
588.174	1056
588.226	1042
588.278	1029
588.33	1023
588.382	1028
588.434	1056
588.486	1029
588.538	1024
588.59	1064
588.642	1060
588.695	1025
588.747	1045
588.799	1042
588.851	1075
588.903	1083
588.955	1047
589.007	1054
589.059	1085
589.111	1080
589.163	1096
589.215	1122
589.267	1108
589.319	1089
589.372	1117
589.424	1122
589.476	1109
589.528	1096
589.58	1106
589.632	1129
589.684	1103
589.736	1121
589.788	1130
589.84	1069
589.892	1092
589.944	1068
589.996	1106
590.048	1116
590.101	1093
590.153	1103
590.205	1053
590.257	1073
590.309	1087
590.361	1105
590.413	1087
590.465	1097
590.517	1058
590.569	1115
590.621	1052
590.673	1103
590.725	1052
590.777	1102
590.829	1061
590.881	1057
590.933	1060
590.986	1071
591.038	1041
591.09	1074
591.142	1043
591.194	1065
591.246	1066
591.298	1069
591.35	1046
591.402	1068
591.454	1029
591.506	1015
591.558	1045
591.61	1040
591.662	1025
591.714	1035
591.766	1046
591.818	1022
591.87	1052
591.923	1031
591.975	1016
592.027	1025
592.079	1030
592.131	1013
592.183	1014
592.235	978
592.287	984
592.339	1008
592.391	1004
592.443	988
592.495	1006
592.547	1002
592.599	1002
592.651	1026
592.703	1031
592.755	997
592.807	1035
592.859	1003
592.911	1017
592.963	1011
593.015	988
593.068	1005
593.12	1025
593.172	1011
593.224	1001
593.276	983
593.328	1023
593.38	1029
593.432	1018
593.484	1039
593.536	995
593.588	1017
593.64	1012
593.692	1008
593.744	1027
593.796	1023
593.848	1016
593.9	1010
593.952	994
594.004	1022
594.056	1035
594.108	982
594.16	999
594.212	1017
594.264	1043
594.316	1016
594.368	1017
594.42	995
594.472	1005
594.524	1012
594.576	1027
594.628	1040
594.68	1000
594.732	1041
594.784	1055
594.837	1049
594.889	1018
594.941	1031
594.993	1022
595.045	1031
595.097	1054
595.149	1034
595.201	1057
595.253	1050
595.305	1031
595.357	1040
595.409	1022
595.461	1058
595.513	1076
595.565	1043
595.617	1046
595.669	1044
595.721	1089
595.773	1060
595.825	1039
595.877	1063
595.929	1056
595.981	1064
596.033	1074
596.085	1075
596.137	1119
596.189	1092
596.241	1079
596.293	1065
596.345	1109
596.397	1103
596.449	1085
596.501	1118
596.553	1126
596.605	1097
596.657	1136
596.709	1129
596.761	1143
596.813	1099
596.865	1124
596.917	1090
596.969	1130
597.021	1124
597.073	1095
597.125	1097
597.177	1120
597.229	1075
597.281	1102
597.333	1089
597.385	1100
597.437	1103
597.489	1133
597.541	1086
597.593	1120
597.645	1085
597.697	1084
597.749	1086
597.801	1106
597.853	1133
597.905	1104
597.957	1120
598.009	1107
598.061	1075
598.113	1105
598.165	1107
598.217	1148
598.269	1113
598.321	1113
598.373	1155
598.425	1096
598.477	1101
598.529	1096
598.581	1140
598.633	1140
598.685	1148
598.737	1121
598.789	1118
598.841	1113
598.893	1113
598.945	1121
598.997	1123
599.049	1135
599.101	1090
599.153	1129
599.205	1103
599.257	1117
599.309	1112
599.361	1114
599.413	1111
599.465	1108
599.517	1112
599.569	1141
599.62	1127
599.672	1104
599.724	1119
599.776	1129
599.828	1145
599.88	1110
599.932	1120
599.984	1114
600.036	1129
600.088	1100
600.14	1147
600.192	1134
600.244	1139
600.296	1116
600.348	1090
600.4	1151
600.452	1133
600.504	1152
600.556	1119
600.608	1123
600.66	1138
600.712	1153
600.764	1119
600.816	1129
600.868	1121
600.92	1135
600.972	1145
601.024	1124
601.076	1141
601.128	1182
601.18	1151
601.232	1119
601.284	1124
601.335	1157
601.387	1122
601.439	1162
601.491	1144
601.543	1150
601.595	1131
601.647	1133
601.699	1158
601.751	1128
601.803	1144
601.855	1121
601.907	1147
601.959	1150
602.011	1142
602.063	1135
602.115	1130
602.167	1138
602.219	1140
602.271	1136
602.323	1152
602.375	1163
602.427	1137
602.478	1137
602.53	1133
602.582	1148
602.634	1133
602.686	1135
602.738	1158
602.79	1161
602.842	1155
602.894	1151
602.946	1141
602.998	1135
603.05	1126
603.102	1137
603.154	1131
603.206	1169
603.258	1166
603.31	1130
603.362	1161
603.413	1170
603.465	1158
603.517	1153
603.569	1143
603.621	1165
603.673	1158
603.725	1161
603.777	1171
603.829	1169
603.881	1172
603.933	1144
603.985	1178
604.037	1192
604.089	1195
604.141	1146
604.193	1195
604.244	1185
604.296	1185
604.348	1186
604.4	1163
604.452	1181
604.504	1156
604.556	1179
604.608	1189
604.66	1164
604.712	1180
604.764	1193
604.816	1168
604.868	1198
604.92	1165
604.971	1168
605.023	1201
605.075	1156
605.127	1184
605.179	1173
605.231	1188
605.283	1182
605.335	1189
605.387	1216
605.439	1198
605.491	1166
605.543	1147
605.594	1158
605.646	1160
605.698	1186
605.75	1172
605.802	1162
605.854	1195
605.906	1180
605.958	1183
606.01	1184
606.062	1176
606.114	1181
606.166	1180
606.217	1221
606.269	1185
606.321	1176
606.373	1186
606.425	1192
606.477	1170
606.529	1228
606.581	1183
606.633	1152
606.685	1201
606.737	1197
606.789	1156
606.84	1194
606.892	1204
606.944	1188
606.996	1162
607.048	1190
607.1	1183
607.152	1219
607.204	1184
607.256	1191
607.308	1203
607.359	1204
607.411	1214
607.463	1175
607.515	1196
607.567	1176
607.619	1198
607.671	1208
607.723	1182
607.775	1228
607.827	1222
607.878	1190
607.93	1202
607.982	1213
608.034	1206
608.086	1207
608.138	1212
608.19	1207
608.242	1198
608.294	1203
608.345	1242
608.397	1207
608.449	1230
608.501	1217
608.553	1225
608.605	1225
608.657	1229
608.709	1242
608.761	1242
608.812	1229
608.864	1221
608.916	1252
608.968	1233
609.02	1237
609.072	1211
609.124	1216
609.176	1236
609.228	1245
609.279	1245
609.331	1230
609.383	1191
609.435	1240
609.487	1244
609.539	1236
609.591	1258
609.643	1234
609.694	1238
609.746	1258
609.798	1248
609.85	1246
609.902	1238
609.954	1265
610.006	1231
610.058	1235
610.109	1254
610.161	1257
610.213	1258
610.265	1270
610.317	1289
610.369	1273
610.421	1275
610.473	1269
610.524	1292
610.576	1301
610.628	1274
610.68	1284
610.732	1298
610.784	1254
610.836	1242
610.887	1284
610.939	1255
610.991	1301
611.043	1271
611.095	1299
611.147	1309
611.199	1282
611.25	1308
611.302	1312
611.354	1311
611.406	1297
611.458	1288
611.51	1299
611.562	1290
611.614	1291
611.665	1328
611.717	1312
611.769	1304
611.821	1298
611.873	1299
611.925	1310
611.977	1283
612.028	1288
612.08	1327
612.132	1331
612.184	1338
612.236	1332
612.288	1283
612.339	1312
612.391	1325
612.443	1301
612.495	1303
612.547	1313
612.599	1316
612.651	1335
612.702	1302
612.754	1340
612.806	1331
612.858	1332
612.91	1336
612.962	1331
613.013	1336
613.065	1386
613.117	1361
613.169	1344
613.221	1359
613.273	1374
613.325	1346
613.376	1343
613.428	1349
613.48	1384
613.532	1393
613.584	1352
613.635	1329
613.687	1345
613.739	1385
613.791	1338
613.843	1398
613.895	1387
613.947	1383
613.998	1385
614.05	1401
614.102	1427
614.154	1370
614.206	1370
614.258	1422
614.309	1399
614.361	1420
614.413	1425
614.465	1373
614.517	1412
614.568	1405
614.62	1420
614.672	1434
614.724	1424
614.776	1447
614.828	1427
614.879	1377
614.931	1407
614.983	1431
615.035	1453
615.087	1454
615.139	1456
615.19	1439
615.242	1426
615.294	1427
615.346	1439
615.398	1422
615.449	1449
615.501	1453
615.553	1450
615.605	1435
615.657	1412
615.709	1452
615.76	1469
615.812	1486
615.864	1455
615.916	1470
615.968	1464
616.019	1441.82
616.071	1464.89
616.123	1475.42
616.175	1492.81
616.227	1462.64
616.278	1477.52
616.33	1479.31
616.382	1484.49
616.434	1473.35
616.486	1471.76
616.537	1480.64
616.589	1482.05
616.641	1504.1
616.693	1504.93
616.745	1480.49
616.797	1477.68
616.848	1506.95
616.9	1504.8
616.952	1526.31
617.004	1505.14
617.056	1511.46
617.107	1504.59
617.159	1529.65
617.211	1499.52
617.263	1506.7
617.315	1493.62
617.366	1506.15
617.418	1526.28
617.47	1509.98
617.522	1511.47
617.573	1515.36
617.625	1520.48
617.677	1517.7
617.729	1518.64
617.781	1508.76
617.832	1499.16
617.884	1535.2
617.936	1515.84
617.988	1545.66
618.04	1535.53
618.091	1542.46
618.143	1543.47
618.195	1538.41
618.247	1516.23
618.299	1516.08
618.35	1535.25
618.402	1552.97
618.454	1545.15
618.506	1545.11
618.557	1531.89
618.609	1564.9
618.661	1554.38
618.713	1535.15
618.765	1544.77
618.816	1548.51
618.868	1562.92
618.92	1568.64
618.972	1548.26
619.023	1573.38
619.075	1572.62
619.127	1550.24
619.179	1570.55
619.231	1562.56
619.282	1570.71
619.334	1590.77
619.386	1578.97
619.438	1577.03
619.49	1587.22
619.541	1567.24
619.593	1569.87
619.645	1567.07
619.697	1582.54
619.748	1564.22
619.8	1568.17
619.852	1579.76
619.904	1594.91
619.955	1583.95
620.007	1591.7
620.059	1592.24
620.111	1602.94
620.162	1607.76
620.214	1614.34
620.266	1605.72
620.318	1591.16
620.37	1606.33
620.421	1609.4
620.473	1611.84
620.525	1593.12
620.577	1631.5
620.628	1633.01
620.68	1610.34
620.732	1608.63
620.784	1617.63
620.835	1602.69
620.887	1602.69
620.939	1624.01
620.991	1619.53
621.042	1620.59
621.094	1619.5
621.146	1611.81
621.198	1617.03
621.249	1613.27
621.269	1608
621.321	1576
621.373	1628
621.425	1629
621.477	1597
621.529	1631
621.581	1629
621.633	1577
621.685	1623
621.737	1599
621.789	1638
621.841	1634
621.893	1636
621.945	1622
621.997	1633
622.049	1622
622.101	1608
622.153	1641
622.205	1589
622.257	1613
622.309	1605
622.361	1647
622.413	1634
622.465	1641
622.517	1591
622.569	1640
622.621	1640
622.673	1638
622.725	1656
622.776	1652
622.828	1645
622.88	1593
622.932	1609
622.984	1685
623.036	1630
623.088	1619
623.14	1618
623.192	1639
623.244	1655
623.296	1642
623.348	1639
623.4	1660
623.452	1652
623.504	1660
623.556	1660
623.608	1672
623.66	1675
623.712	1642
623.764	1668
623.816	1633
623.868	1657
623.92	1668
623.972	1658
624.024	1681
624.076	1658
624.128	1675
624.18	1655
624.232	1649
624.284	1652
624.336	1691
624.388	1676
624.44	1667
624.492	1676
624.544	1663
624.596	1686
624.648	1685
624.699	1709
624.751	1666
624.803	1730
624.855	1682
624.907	1730
624.959	1712
625.011	1664
625.063	1691
625.115	1691
625.167	1691
625.219	1736
625.271	1686
625.323	1658
625.375	1684
625.427	1696
625.479	1675
625.531	1701
625.583	1693
625.635	1737
625.687	1684
625.739	1708
625.791	1710
625.843	1715
625.895	1711
625.946	1736
625.998	1673
626.05	1743
626.102	1732
626.154	1725
626.206	1700
626.258	1700
626.31	1752
626.362	1735
626.414	1743
626.466	1741
626.518	1717
626.57	1741
626.622	1750
626.674	1734
626.726	1732
626.778	1756
626.83	1734
626.882	1779
626.934	1749
626.985	1754
627.037	1753
627.089	1777
627.141	1773
627.193	1771
627.245	1769
627.297	1766
627.349	1795
627.401	1781
627.453	1801
627.505	1754
627.557	1800
627.609	1791
627.661	1767
627.713	1782
627.765	1773
627.817	1798
627.868	1767
627.92	1772
627.972	1798
628.024	1785
628.076	1746
628.128	1769
628.18	1787
628.232	1799
628.284	1778
628.336	1782
628.388	1807
628.44	1785
628.492	1795
628.544	1831
628.596	1829
628.647	1841
628.699	1860
628.751	1823
628.803	1862
628.855	1845
628.907	1816
628.959	1838
629.011	1820
629.063	1841
629.115	1875
629.167	1841
629.219	1815
629.271	1854
629.322	1835
629.374	1842
629.426	1883
629.478	1868
629.53	1873
629.582	1868
629.634	1867
629.686	1828
629.738	1844
629.79	1880
629.842	1840
629.894	1849
629.945	1866
629.997	1917
630.049	1889
630.101	1875
630.153	1896
630.205	1901
630.257	1884
630.309	1891
630.361	1874
630.413	1886
630.465	1918
630.517	1889
630.568	1905
630.62	1929
630.672	1876
630.724	1938
630.776	1913
630.828	1903
630.88	1941
630.932	1914
630.984	1927
631.036	1941
631.088	1927
631.14	1913
631.191	1873
631.243	1914
631.295	1942
631.347	1930
631.399	1928
631.451	1987
631.503	1926
631.555	1912
631.607	1969
631.659	1969
631.71	1945
631.762	1992
631.814	1942
631.866	1976
631.918	1962
631.97	1986
632.022	2046
632.074	1959
632.126	2023
632.178	1973
632.229	1982
632.281	1956
632.333	2025
632.385	2008
632.437	1967
632.489	2034
632.541	1989
632.593	2019
632.645	1984
632.696	2024
632.748	2058
632.8	2015
632.852	2002
632.904	2059
632.956	2097
633.008	2043
633.06	2071
633.112	2046
633.164	2047
633.215	2083
633.267	2082
633.319	2069
633.371	2081
633.423	2074
633.475	2066
633.527	2070
633.579	2074
633.63	2076
633.682	2070
633.734	2088
633.786	2101
633.838	2073
633.89	2125
633.942	2103
633.994	2122
634.046	2081
634.097	2147
634.149	2122
634.201	2152
634.253	2136
634.305	2154
634.357	2160
634.409	2154
634.461	2155
634.512	2142
634.564	2132
634.616	2210
634.668	2202
634.72	2160
634.772	2196
634.824	2209
634.876	2209
634.927	2232
634.979	2231
635.031	2220
635.083	2248
635.135	2249
635.187	2279
635.239	2302
635.291	2215
635.342	2249
635.394	2266
635.446	2261
635.498	2296
635.55	2325
635.602	2317
635.654	2290
635.705	2345
635.757	2285
635.809	2355
635.861	2330
635.913	2364
635.965	2388
636.017	2422
636.068	2437
636.12	2461
636.172	2415
636.224	2447
636.276	2468
636.328	2507
636.38	2525
636.431	2536
636.483	2603
636.535	2592
636.587	2612
636.639	2597
636.691	2668
636.743	2661
636.794	2709
636.846	2753
636.898	2736
636.95	2773
637.002	2813
637.054	2850
637.106	2855
637.157	2927
637.209	2908
637.261	2949
637.313	2992
637.365	3027
637.417	3036
637.469	3047
637.52	3133
637.572	3126
637.624	3177
637.676	3146
637.728	3261
637.78	3224
637.831	3275
637.883	3287
637.935	3301
637.987	3262
638.039	3361
638.091	3311
638.143	3340
638.194	3300
638.246	3324
638.298	3335
638.35	3317
638.402	3317
638.454	3329
638.505	3299
638.557	3315
638.609	3254
638.661	3303
638.713	3233
638.765	3234
638.816	3234
638.868	3200
638.92	3208
638.972	3121
639.024	3117
639.076	3146
639.127	3088
639.179	3037
639.231	3018
639.283	3030
639.335	3054
639.387	3009
639.438	3001
639.49	2973
639.542	2926
639.594	2953
639.646	2956
639.698	2910
639.749	2912
639.801	2883
639.853	2878
639.905	2900
639.957	2812
640.008	2858
640.06	2871
640.112	2811
640.164	2845
640.216	2811
640.268	2794
640.319	2805
640.371	2777
640.423	2777
640.475	2770
640.527	2752
640.578	2726
640.63	2761
640.682	2776
640.734	2750
640.786	2709
640.838	2747
640.889	2705
640.941	2722
640.993	2754
641.045	2724
641.097	2723
641.148	2691
641.2	2688
641.252	2698
641.304	2696
641.356	2644
641.408	2659
641.459	2678
641.511	2729
641.563	2679
641.615	2677
641.667	2697
641.718	2695
641.77	2658
641.822	2647
641.874	2690
641.926	2650
641.977	2673
642.029	2723
642.081	2670
642.133	2652
642.185	2674
642.236	2717
642.288	2631
642.34	2720
642.392	2649
642.444	2676
642.495	2698
642.547	2661
642.599	2663
642.651	2663
642.703	2701
642.754	2696
642.806	2724
642.858	2687
642.91	2669
642.962	2664
643.013	2707
643.065	2710
643.117	2682
643.169	2677
643.221	2667
643.272	2733
643.324	2663
643.376	2699
643.428	2740
643.479	2673
643.531	2701
643.583	2713
643.635	2667
643.687	2724
643.738	2683
643.79	2659
643.842	2673
643.894	2678
643.946	2694
643.997	2695
644.049	2740
644.101	2703
644.153	2712
644.205	2704
644.256	2746
644.308	2707
644.36	2703
644.412	2781
644.463	2772
644.515	2730
644.567	2721
644.619	2770
644.671	2710
644.722	2775
644.774	2782
644.826	2755
644.878	2732
644.929	2775
644.981	2738
645.033	2775
645.085	2727
645.136	2720
645.188	2757
645.24	2731
645.292	2769
645.344	2743
645.395	2778
645.447	2789
645.499	2795
645.551	2792
645.602	2806
645.654	2755
645.706	2822
645.758	2846
645.81	2814
645.861	2803
645.913	2788
645.965	2775
646.017	2816
646.068	2808
646.12	2809
646.172	2790
646.224	2817
646.275	2836
646.327	2756
646.379	2821
646.431	2777
646.482	2817
646.534	2799
646.586	2870
646.638	2833
646.689	2833
646.741	2811
646.793	2841
646.845	2839
646.896	2828
646.948	2836
647	2895
647.052	2840
647.104	2831
647.155	2873
647.207	2860
647.259	2865
647.31	2823
647.362	2853
647.414	2916
647.466	2902
647.518	2877
647.569	2872
647.621	2909
647.673	2899
647.724	2882
647.776	2924
647.828	2890
647.88	2873
647.931	2895
647.983	2917
648.035	2924
648.087	2898
648.138	2939
648.19	2902
648.242	2924
648.294	2936
648.345	2904
648.397	2930
648.449	2959
648.501	2899
648.552	2916
648.604	2881
648.656	2944
648.708	2909
648.759	2958
648.811	2936
648.863	2956
648.915	2950
648.966	2974
649.018	2985
649.07	2957
649.121	2937
649.173	2969
649.225	2942
649.277	2914
649.328	3019
649.38	3005
649.432	3015
649.484	2941
649.535	3031
649.587	3030
649.639	3033
649.69	3017
649.742	3020
649.794	3034
649.846	3064
649.897	2978
649.949	3049
650.001	3027
650.053	3076
650.104	3011
650.156	3064
650.208	3078
650.259	3088
650.311	3050
650.363	3076
650.415	3065
650.466	3044
650.518	3139
650.57	3112
650.621	3115
650.673	3104
650.725	3141
650.777	3186
650.828	3088
650.88	3116
650.932	3082
650.984	3103
651.035	3119
651.087	3106
651.139	3133
651.19	3114
651.242	3122
651.294	3123
651.345	3145
651.397	3163
651.449	3155
651.501	3140
651.552	3158
651.604	3189
651.656	3171
651.707	3204
651.759	3171
651.811	3236
651.863	3189
651.914	3192
651.966	3173
652.018	3206
652.069	3203
652.121	3205
652.173	3256
652.224	3246
652.276	3243
652.328	3261
652.38	3220
652.431	3210
652.483	3214
652.535	3245
652.586	3301
652.638	3251
652.69	3303
652.741	3247
652.793	3263
652.845	3310
652.897	3281
652.948	3262
653	3255
653.052	3287
653.103	3338
653.155	3335
653.207	3342
653.258	3293
653.31	3353
653.362	3328
653.413	3327
653.465	3363
653.517	3346
653.568	3362
653.62	3326
653.672	3354
653.724	3357
653.775	3356
653.827	3344
653.879	3367
653.93	3400
653.982	3380
654.034	3410
654.085	3405
654.137	3443
654.189	3417
654.24	3427
654.292	3411
654.344	3471
654.395	3423
654.447	3413
654.499	3429
654.55	3439
654.602	3430
654.654	3434
654.705	3486
654.757	3499
654.809	3506
654.86	3521
654.912	3488
654.964	3576
655.016	3491
655.067	3537
655.119	3579
655.17	3554
655.222	3555
655.274	3561
655.326	3586
655.377	3635
655.429	3533
655.481	3584
655.532	3601
655.584	3656
655.635	3638
655.687	3700
655.739	3657
655.79	3627
655.842	3706
655.894	3644
655.945	3664
655.997	3728
656.049	3707
656.1	3714
656.152	3701
656.204	3691
656.255	3750
656.307	3705
656.359	3734
656.41	3757
656.462	3739
656.514	3765
656.565	3755
656.617	3747
656.669	3786
656.72	3787
656.772	3823
656.824	3843
656.875	3850
656.927	3798
656.979	3796
657.03	3789
657.082	3844
657.134	3813
657.185	3852
657.237	3852
657.288	3859
657.34	3885
657.392	3911
657.443	3844
657.495	3836
657.547	3916
657.598	3870
657.65	3935
657.702	3877
657.753	3953
657.805	3951
657.857	3958
657.908	3970
657.96	3957
658.011	3967
658.063	3943
658.115	3964
658.166	3957
658.218	3962
658.27	3906
658.321	3984
658.373	3991
658.425	4036
658.476	4024
658.528	3950
658.579	4019
658.631	3980
658.683	4045
658.734	4034
658.786	4038
658.838	4045
658.889	4114
658.941	4021
658.992	4060
659.044	4025
659.096	4026
659.147	4048
659.199	4051
659.251	4002
659.302	4104
659.354	4024
659.406	4025
659.457	4035
659.509	4024
659.56	4072
659.612	4074
659.664	4075
659.715	4049
659.767	4113
659.818	4050
659.87	4064
659.922	4074
659.973	4041
660.025	4073
660.077	4098
660.128	4147
660.18	4076
660.231	4005
660.283	4107
660.335	4041
660.386	4107
660.438	4080
660.49	4116
660.541	4047
660.593	4085
660.644	4059
660.696	4036
660.748	4034
660.799	4054
660.851	4048
660.902	4060
660.954	4073
661.006	4080
661.057	4055
661.109	4074
661.16	4084
661.212	3999
661.264	4085
661.315	4063
661.367	4045
661.418	4066
661.47	4081
661.522	4086
661.573	4008
661.625	4048
661.676	4061
661.728	4034
661.78	4104
661.831	4038
661.883	4037
661.934	4096
661.986	4077
662.038	4086
662.089	4076
662.141	4040
662.192	4015
662.244	4078
662.296	4108
662.347	4047
662.399	4086
662.45	4030
662.502	4039
662.554	4063
662.605	4074
662.657	4064
662.708	4139
662.76	4108
662.811	4067
662.863	4008
662.915	4092
662.966	4084
663.018	4077
663.069	4044
663.121	4026
663.173	4046
663.224	4063
663.276	4004
663.327	4032
663.379	4126
663.43	4091
663.482	4038
663.534	4058
663.585	4100
663.637	4097
663.688	4060
663.74	4106.1
663.792	4101.78
663.843	4101.33
663.895	4049.49
663.946	4103.6
663.998	4075.41
664.049	4050.79
664.101	4105.28
664.153	4107.39
664.204	4056.2
664.256	4066.57
664.307	4050.7
664.359	4135.77
664.41	4129.93
664.462	4053.91
664.513	4080.53
664.565	4107.49
664.617	4110.34
664.668	4074.62
664.72	4143.49
664.771	4083.55
664.823	4126.66
664.874	4098.92
664.926	4086.2
664.978	4093.23
665.029	4114.2
665.081	4095.56
665.132	4091.7
665.184	4106.07
665.235	4039.69
665.287	4099.73
665.339	4106.85
665.39	4065.59
665.442	4107.25
665.493	4067.95
665.545	4080.88
665.596	4064.43
665.648	4100.53
665.699	4090.77
665.751	4109.44
665.802	4114.65
665.854	4079.81
665.906	4096.35
665.957	4100.47
666.009	4068.66
666.06	4098.38
666.112	4104.2
666.163	4110.21
666.215	4073.1
666.266	4081.81
666.318	4110.19
666.37	4101.14
666.421	4115.5
666.473	4089.24
666.524	4072.8
666.576	4106.8
666.627	4092.44
666.679	4089.74
666.73	4103.52
666.782	4104.07
666.833	4060.05
666.885	4068.99
666.937	4052.56
666.988	4108.39
667.04	4117.27
667.091	4093.04
667.143	4070.03
667.194	4094.98
667.246	4104.64
667.297	4089.85
667.349	4093.38
667.4	4051.9
667.452	4079.95
667.503	4087.85
667.555	4095.72
667.607	4110
667.658	4049.85
667.71	4065.95
667.761	4133.85
667.813	4081.07
667.864	4069.87
667.916	4094.85
667.967	4107.14
668.019	4109.36
668.07	4111.36
668.122	4075.21
668.173	4068.77
668.225	4066.32
668.276	4109.69
668.328	4108.11
668.379	4129.17
668.431	4145.2
668.482	4085.92
668.534	4075.63
668.586	4050.95
668.637	4057.52
668.689	4089.29
668.74	4113.5
668.792	4099.86
668.843	4107.2
668.895	4102.23
668.935	4159
668.987	4157
669.038	4166
669.09	4133
669.142	4076
669.194	4107
669.245	4075
669.297	4072
669.349	4092
669.401	4135
669.453	4100
669.504	4101
669.556	4109
669.608	4121
669.66	4102
669.711	4095
669.763	4070
669.815	4105
669.867	4088
669.918	4126
669.97	4113
670.022	4129
670.074	4080
670.125	4090
670.177	4115
670.229	4105
670.281	4124
670.332	4128
670.384	4144
670.436	4170
670.488	4090
670.539	4052
670.591	4141
670.643	4112
670.695	4075
670.747	4170
670.798	4137
670.85	4089
670.902	4102
670.953	4077
671.005	4120
671.057	4116
671.109	4114
671.161	4070
671.212	4102
671.264	4093
671.316	4115
671.367	4149
671.419	4099
671.471	4090
671.523	4143
671.575	4122
671.626	4082
671.678	4176
671.73	4150
671.781	4113
671.833	4104
671.885	4112
671.937	4113
671.988	4122
672.04	4107
672.092	4092
672.144	4133
672.195	4116
672.247	4110
672.299	4153
672.351	4149
672.402	4132
672.454	4079
672.506	4139
672.558	4155
672.609	4143
672.661	4172
672.713	4187
672.765	4128
672.816	4159
672.868	4153
672.92	4167
672.971	4179
673.023	4214
673.075	4180
673.127	4203
673.178	4212
673.23	4233
673.282	4149
673.334	4249
673.385	4205
673.437	4235
673.489	4228
673.54	4220
673.592	4192
673.644	4219
673.696	4276
673.747	4219
673.799	4225
673.851	4258
673.903	4242
673.954	4255
674.006	4238
674.058	4259
674.109	4216
674.161	4264
674.213	4237
674.265	4267
674.316	4249
674.368	4250
674.42	4233
674.471	4256
674.523	4233
674.575	4260
674.627	4327
674.678	4350
674.73	4268
674.782	4280
674.833	4320
674.885	4337
674.937	4358
674.989	4341
675.04	4301
675.092	4323
675.144	4289
675.195	4341
675.247	4330
675.299	4338
675.351	4373
675.402	4337
675.454	4450
675.506	4387
675.557	4371
675.609	4409
675.661	4346
675.713	4367
675.764	4334
675.816	4351
675.868	4400
675.919	4432
675.971	4425
676.023	4285
676.074	4368
676.126	4356
676.178	4355
676.23	4351
676.281	4417
676.333	4430
676.385	4399
676.436	4404
676.488	4327
676.54	4389
676.591	4384
676.643	4377
676.695	4411
676.747	4397
676.798	4443
676.85	4416
676.902	4395
676.953	4388
677.005	4416
677.057	4488
677.108	4442
677.16	4422
677.212	4400
677.263	4381
677.315	4423
677.367	4442
677.419	4440
677.47	4382
677.522	4438
677.574	4388
677.625	4413
677.677	4437
677.729	4417
677.78	4396
677.832	4368
677.884	4446
677.935	4427
677.987	4389
678.039	4428
678.091	4354
678.142	4417
678.194	4410
678.246	4406
678.297	4479
678.349	4434
678.401	4454
678.452	4487
678.504	4449
678.556	4447
678.607	4354
678.659	4458
678.711	4446
678.762	4394
678.814	4441
678.866	4402
678.917	4463
678.969	4380
679.021	4469
679.072	4440
679.124	4440
679.176	4428
679.227	4402
679.279	4383
679.331	4445
679.382	4414
679.434	4457
679.486	4417
679.537	4441
679.589	4394
679.641	4497
679.692	4455
679.744	4418
679.796	4468
679.847	4393
679.899	4493
679.951	4426
680.003	4456
680.054	4487
680.106	4419
680.157	4475
680.209	4421
680.261	4430
680.312	4492
680.364	4464
680.416	4475
680.467	4482
680.519	4487
680.571	4440
680.622	4437
680.674	4470
680.726	4501
680.777	4539
680.829	4477
680.881	4499
680.932	4518
680.984	4488
681.036	4469
681.087	4534
681.139	4486
681.191	4500
681.242	4466
681.294	4539
681.346	4491
681.397	4507
681.449	4571
681.501	4515
681.552	4485
681.604	4555
681.656	4564
681.707	4542
681.759	4594
681.81	4548
681.862	4557
681.914	4560
681.965	4513
682.017	4516
682.069	4512
682.12	4585
682.172	4540
682.224	4577
682.275	4579
682.327	4601
682.379	4570
682.43	4558
682.482	4609
682.533	4584
682.585	4540
682.637	4582
682.688	4540
682.74	4571
682.792	4573
682.843	4584
682.895	4559
682.947	4541
682.998	4546
683.05	4532
683.102	4499
683.153	4553
683.205	4614
683.256	4579
683.308	4597
683.36	4579
683.411	4602
683.463	4638
683.515	4535
683.566	4559
683.618	4573
683.669	4578
683.721	4597
683.773	4613
683.824	4590
683.876	4550
683.928	4546
683.979	4530
684.031	4574
684.082	4595
684.134	4601
684.186	4596
684.237	4596
684.289	4555
684.341	4574
684.392	4582
684.444	4617
684.495	4574
684.547	4572
684.599	4547
684.65	4552
684.702	4599
684.754	4551
684.805	4534
684.857	4587
684.908	4548
684.96	4514
685.012	4601
685.063	4584
685.115	4547
685.166	4527
685.218	4529
685.27	4533
685.321	4514
685.373	4532
685.424	4531
685.476	4485
685.528	4538
685.579	4447
685.631	4502
685.683	4477
685.734	4515
685.786	4581
685.837	4491
685.889	4547
685.941	4484
685.992	4523
686.044	4488
686.095	4505
686.147	4526
686.199	4547
686.25	4571
686.302	4520
686.353	4445
686.405	4478
686.457	4519
686.508	4448
686.56	4455
686.611	4464
686.663	4519
686.715	4485
686.766	4527
686.818	4425
686.869	4481
686.921	4473
686.973	4502
687.024	4451
687.076	4495
687.127	4477
687.179	4449
687.231	4430
687.282	4461
687.334	4428
687.385	4467
687.437	4458
687.489	4423
687.54	4482
687.592	4481
687.643	4472
687.695	4478
687.747	4455
687.798	4404
687.85	4417
687.901	4441
687.953	4432
688.004	4462
688.056	4465
688.108	4461
688.159	4485
688.211	4440
688.262	4481
688.314	4467
688.366	4469
688.417	4425
688.469	4452
688.52	4413
688.572	4445
688.623	4419
688.675	4437
688.727	4480
688.778	4434
688.83	4490
688.881	4454
688.933	4471
688.984	4454
689.036	4477
689.088	4412
689.139	4428
689.191	4466
689.242	4507
689.294	4427
689.346	4461
689.397	4391
689.449	4472
689.5	4394
689.552	4480
689.603	4420
689.655	4378
689.706	4432
689.758	4398
689.81	4432
689.861	4398
689.913	4381
689.964	4452
690.016	4391
690.067	4362
690.119	4425
690.171	4449
690.222	4414
690.274	4380
690.325	4381
690.377	4440
690.428	4404
690.48	4334
690.531	4423
690.583	4395
690.635	4375
690.686	4399
690.738	4435
690.789	4446
690.841	4350
690.892	4395
690.944	4404
690.996	4360
691.047	4390
691.099	4397
691.15	4404
691.202	4371
691.253	4376
691.305	4366
691.356	4395
691.408	4384
691.459	4352
691.511	4400
691.563	4373
691.614	4398
691.666	4381
691.717	4352
691.769	4386
691.82	4324
691.872	4337
691.923	4339
691.975	4347
692.026	4276
692.078	4297
692.13	4288
692.181	4318
692.233	4305
692.284	4305
692.336	4305
692.387	4332
692.439	4311
692.49	4348
692.542	4296
692.593	4293
692.645	4302
692.697	4326
692.748	4315
692.8	4300
692.851	4271
692.903	4285
692.954	4291
693.006	4290
693.057	4318
693.109	4275
693.16	4262
693.212	4254
693.263	4318
693.315	4242
693.366	4288
693.418	4268
693.47	4273
693.521	4234
693.573	4339
693.624	4268
693.676	4229
693.727	4311
693.779	4269
693.83	4256
693.882	4224
693.933	4270
693.985	4249
694.036	4232
694.088	4246
694.139	4193
694.191	4255
694.242	4237
694.294	4208
694.345	4261
694.397	4243
694.448	4221
694.5	4241
694.552	4220
694.603	4148
694.655	4297
694.706	4273
694.758	4242
694.809	4264
694.861	4262
694.912	4184
694.964	4237
695.015	4242
695.067	4203
695.118	4179
695.17	4180
695.221	4236
695.273	4225
695.324	4227
695.376	4201
695.427	4216
695.479	4260
695.53	4210
695.582	4213
695.633	4287
695.685	4198
695.736	4220
695.788	4179
695.839	4163
695.891	4237
695.942	4229
695.994	4184
696.045	4140
696.097	4194
696.148	4130
696.2	4169
696.251	4186
696.303	4205
696.354	4148
696.406	4182
696.457	4147
696.509	4181
696.56	4170
696.612	4176
696.663	4159
696.715	4128
696.766	4145
696.818	4140
696.869	4155
696.921	4105
696.972	4144
697.024	4170
697.075	4139
697.127	4135
697.178	4199
697.23	4134
697.281	4150
697.333	4143
697.384	4123
697.436	4156
697.487	4068
697.539	4171
697.59	4125
697.642	4092
697.693	4044
697.745	4069
697.796	4107
697.847	4127
697.899	4107
697.95	4091
698.002	4078
698.053	4096
698.105	4077
698.156	4052
698.208	4074
698.259	4027
698.311	4056
698.362	4085
698.414	4061
698.465	4042
698.517	4008
698.568	4033
698.62	4076
698.671	4052
698.723	4010
698.774	4011
698.826	3993
698.877	4024
698.928	4013
698.98	4017
699.031	3977
699.083	4053
699.134	3978
699.186	3988
699.237	4028
699.289	3971
699.34	3985
699.392	4048
699.443	4003
699.495	4015
699.546	3990
699.598	4004
699.649	4014
699.7	3977
699.752	4013
699.803	4005
699.855	4008
699.906	3989
699.958	4012
700.009	4020
700.061	3978
700.112	4049
700.164	3920
700.215	4012
700.266	3994
700.318	3956
700.369	4000
700.421	3988
700.472	3953
700.524	3909
700.575	3998
700.627	3957
700.678	3923
700.73	3949
700.781	3946
700.832	3921
700.884	3974
700.935	3942
700.987	4001
701.038	3980
701.09	3967
701.141	3975
701.193	3939
701.244	3993
701.295	3978
701.347	3974
701.398	3916
701.45	4024
701.501	3983
701.553	3939
701.604	3927
701.656	3963
701.707	3995
701.758	3914
701.81	4004
701.861	3980
701.913	3978
701.964	3950
702.016	3991
702.067	3963
702.119	4035
702.17	3980
702.221	3983
702.273	4028
702.324	3979
702.376	3976
702.427	3961
702.479	3961
702.53	3942
702.581	4028
702.633	4009
702.684	3936
702.736	3979
702.787	3918
702.839	4016
702.89	3938
702.941	3927
702.993	4011
703.044	3910
703.096	4008
703.147	3937
703.199	3963
703.25	3982
703.301	3989
703.353	3924
703.404	3941
703.456	3943
703.507	3989
703.558	3953
703.61	3903
703.661	3939
703.713	3951
703.764	3963
703.816	3921
703.867	3880
703.918	3959
703.97	3943
704.021	3980
704.073	3953
704.124	3973
704.175	3896
704.227	3952
704.278	3925
704.33	3884
704.381	3951
704.432	3950
704.484	3951
704.535	3904
704.587	3906
704.638	3940
704.69	3901
704.741	3898
704.792	3910
704.844	3902
704.895	3906
704.947	3881
704.998	3959
705.049	3898
705.101	3903
705.152	3867
705.204	3899
705.255	3904
705.306	3922
705.358	3927
705.409	3881
705.461	3847
705.512	3847
705.563	3879
705.615	3856
705.666	3836
705.718	3814
705.769	3837
705.82	3875
705.872	3759
705.923	3867
705.974	3825
706.026	3780
706.077	3839
706.129	3816
706.18	3827
706.231	3788
706.283	3812
706.334	3828
706.386	3771
706.437	3759
706.488	3764
706.54	3829
706.591	3830
706.643	3816
706.694	3827
706.745	3791
706.797	3771
706.848	3813
706.899	3766
706.951	3739
707.002	3725
707.054	3749
707.105	3713
707.156	3767
707.208	3768
707.259	3722
707.31	3743
707.362	3734
707.413	3713
707.465	3708
707.516	3785
707.567	3739
707.619	3753
707.67	3735
707.721	3703
707.773	3664
707.824	3786
707.876	3689
707.927	3735
707.978	3739
708.03	3698
708.081	3725
708.132	3739
708.184	3735
708.235	3714
708.287	3688
708.338	3698
708.389	3676
708.441	3718
708.492	3702
708.543	3691
708.595	3734
708.646	3692
708.697	3704
708.749	3690
708.8	3727
708.852	3712
708.903	3697
708.954	3745
709.006	3666
709.057	3717
709.108	3644
709.16	3653
709.211	3693
709.262	3675
709.314	3694
709.365	3681
709.416	3681
709.468	3608
709.519	3638
709.57	3682
709.622	3611
709.673	3667
709.725	3701
709.776	3645
709.827	3671
709.879	3648
709.93	3598
709.981	3683
710.033	3622
710.084	3659
710.135	3640
710.187	3664
710.238	3680
710.289	3643
710.341	3542
710.392	3619
710.443	3600
710.495	3610
710.546	3573
710.597	3617
710.649	3668
710.7	3671
710.751	3643
710.803	3615
710.854	3642
710.905	3600
710.957	3602
711.008	3608
711.059	3567
711.111	3588
711.162	3577
711.213	3611
711.265	3617.33
711.316	3627.89
711.367	3571.87
711.419	3599.43
711.47	3606.94
711.521	3608.73
711.573	3608.97
711.624	3605.28
711.675	3581.51
711.727	3588.45
711.778	3576.81
711.829	3602.18
711.881	3565.65
711.932	3603.84
711.983	3576.73
712.035	3580.14
712.086	3602.45
712.137	3593.51
712.189	3554.71
712.24	3578.42
712.291	3557.74
712.343	3541.27
712.394	3532.17
712.445	3541.4
712.496	3557.01
712.548	3557.91
712.599	3551.9
712.65	3549.54
712.702	3507.4
712.753	3544.28
712.804	3538.68
712.856	3524.28
712.907	3513.95
712.958	3529.42
713.01	3488.89
713.061	3520.17
713.112	3542.81
713.164	3484.07
713.215	3487.26
713.266	3440.17
713.317	3487.14
713.369	3495.74
713.42	3519.34
713.471	3453.75
713.523	3486.75
713.574	3501.32
713.625	3462.62
713.677	3486.02
713.728	3479.94
713.779	3461.06
713.831	3450.47
713.882	3430.73
713.933	3448.23
713.984	3452.72
714.036	3458.87
714.087	3440.27
714.138	3433.95
714.19	3477.82
714.241	3428.68
714.292	3402.57
714.343	3395.28
714.395	3402.2
714.446	3425.27
714.497	3397.6
714.549	3401.53
714.6	3414.82
714.651	3389.95
714.703	3382.34
714.754	3417.41
714.805	3416.18
714.856	3397.01
714.908	3392.58
714.959	3384.35
715.01	3361.34
715.062	3369.53
715.113	3380.09
715.164	3387.81
715.215	3353.51
715.267	3374.35
715.318	3355.6
715.369	3345.13
715.421	3340.76
715.472	3370.75
715.523	3367.52
715.574	3328.42
715.626	3357.72
715.677	3377.61
715.728	3340.91
715.779	3338.41
715.831	3340.92
715.882	3350.03
715.933	3325.03
715.985	3336.95
716.036	3348.4
716.087	3328.91
716.138	3330.82
716.19	3290.78
716.241	3330.35
716.292	3331.56
716.343	3307.54
716.395	3290.96
716.433	3358
716.485	3317
716.536	3355
716.588	3258
716.639	3251
716.691	3279
716.742	3296
716.794	3316
716.845	3332
716.897	3312
716.948	3254
717	3287
717.052	3290
717.103	3276
717.155	3226
717.206	3227
717.258	3292
717.309	3300
717.361	3312
717.412	3328
717.464	3210
717.515	3249
717.567	3253
717.618	3251
717.67	3228
717.721	3226
717.773	3283
717.824	3200
717.876	3228
717.927	3234
717.979	3235
718.03	3197
718.082	3231
718.133	3205
718.185	3264
718.237	3251
718.288	3225
718.34	3241
718.391	3214
718.443	3245
718.494	3191
718.546	3229
718.597	3244
718.649	3218
718.7	3240
718.752	3214
718.803	3206
718.855	3183
718.906	3170
718.958	3164
719.009	3219
719.061	3162
719.112	3176
719.164	3198
719.215	3173
719.267	3193
719.318	3175
719.37	3114
719.421	3190
719.473	3151
719.524	3145
719.576	3180
719.627	3151
719.679	3157
719.73	3131
719.782	3123
719.833	3115
719.885	3107
719.936	3130
719.988	3151
720.039	3149
720.091	3155
720.142	3147
720.194	3126
720.245	3123
720.297	3112
720.348	3114
720.4	3060
720.451	3124
720.503	3029
720.554	3088
720.606	3084
720.657	3115
720.709	3059
720.76	3103
720.812	3061
720.863	3120
720.915	3156
720.966	3063
721.018	3095
721.069	3036
721.121	3030
721.172	3085
721.224	3049
721.275	3020
721.327	3029
721.378	3034
721.43	3030
721.481	3032
721.532	3010
721.584	3057
721.635	3030
721.687	3055
721.738	2964
721.79	3029
721.841	2982
721.893	2969
721.944	3032
721.996	2994
722.047	3003
722.099	2968
722.15	2957
722.202	3031
722.253	2983
722.305	3014
722.356	2999
722.408	2926
722.459	2957
722.511	2998
722.562	2998
722.614	2961
722.665	2962
722.716	2920
722.768	2968
722.819	2942
722.871	2947
722.922	2924
722.974	2945
723.025	2908
723.077	2869
723.128	2943
723.18	2882
723.231	2903
723.283	2927
723.334	2910
723.386	2932
723.437	2902
723.488	2938
723.54	2913
723.591	2945
723.643	2868
723.694	2897
723.746	2904
723.797	2879
723.849	2876
723.9	2876
723.952	2861
724.003	2870
724.055	2879
724.106	2896
724.157	2886
724.209	2868
724.26	2845
724.312	2852
724.363	2847
724.415	2825
724.466	2823
724.518	2887
724.569	2856
724.621	2787
724.672	2868
724.723	2824
724.775	2831
724.826	2838
724.878	2828
724.929	2830
724.981	2769
725.032	2891
725.084	2889
725.135	2818
725.187	2802
725.238	2814
725.289	2862
725.341	2831
725.392	2770
725.444	2775
725.495	2789
725.547	2799
725.598	2797
725.65	2782
725.701	2806
725.752	2790
725.804	2758
725.855	2787
725.907	2769
725.958	2790
726.01	2798
726.061	2781
726.112	2745
726.164	2780
726.215	2800
726.267	2771
726.318	2799
726.37	2850
726.421	2752
726.473	2767
726.524	2761
726.575	2775
726.627	2715
726.678	2758
726.73	2722
726.781	2709
726.833	2717
726.884	2709
726.935	2769
726.987	2744
727.038	2743
727.09	2657
727.141	2766
727.193	2690
727.244	2694
727.295	2711
727.347	2726
727.398	2747
727.45	2713
727.501	2674
727.552	2709
727.604	2712
727.655	2644
727.707	2664
727.758	2711
727.81	2659
727.861	2675
727.912	2643
727.964	2664
728.015	2633
728.067	2698
728.118	2679
728.17	2622
728.221	2678
728.272	2670
728.324	2641
728.375	2604
728.427	2667
728.478	2612
728.529	2621
728.581	2652
728.632	2600
728.684	2574
728.735	2579
728.786	2615
728.838	2652
728.889	2644
728.941	2593
728.992	2601
729.044	2596
729.095	2581
729.146	2532
729.198	2577
729.249	2582
729.301	2573
729.352	2513
729.403	2500
729.455	2567
729.506	2529
729.558	2568
729.609	2572
729.66	2515
729.712	2518
729.763	2589
729.815	2516
729.866	2482
729.917	2509
729.969	2537
730.02	2556
730.072	2521
730.123	2522
730.174	2506
730.226	2485
730.277	2500
730.329	2517
730.38	2519
730.431	2486
730.483	2450
730.534	2521
730.586	2511
730.637	2495
730.688	2496
730.74	2448
730.791	2496
730.842	2528
730.894	2455
730.945	2461
730.997	2474
731.048	2500
731.099	2478
731.151	2515
731.202	2439
731.254	2460
731.305	2472
731.356	2431
731.408	2426
731.459	2445
731.51	2450
731.562	2443
731.613	2442
731.665	2453
731.716	2470
731.767	2427
731.819	2407
731.87	2463
731.922	2458
731.973	2428
732.024	2456
732.076	2404
732.127	2454
732.178	2435
732.23	2390
732.281	2462
732.333	2445
732.384	2428
732.435	2391
732.487	2430
732.538	2398
732.589	2386
732.641	2426
732.692	2371
732.744	2394
732.795	2377
732.846	2402
732.898	2405
732.949	2355
733	2370
733.052	2436
733.103	2437
733.154	2389
733.206	2364
733.257	2421
733.309	2392
733.36	2359
733.411	2372
733.463	2412
733.514	2351
733.565	2388
733.617	2366
733.668	2344
733.719	2376
733.771	2390
733.822	2376
733.873	2348
733.925	2382
733.976	2343
734.028	2385
734.079	2384
734.13	2343
734.182	2362
734.233	2377
734.284	2338
734.336	2343
734.387	2333
734.438	2336
734.49	2354
734.541	2339
734.592	2352
734.644	2336
734.695	2387
734.747	2337
734.798	2314
734.849	2303
734.901	2317
734.952	2330
735.003	2308
735.055	2358
735.106	2334
735.157	2335
735.209	2293
735.26	2364
735.311	2336
735.363	2342
735.414	2294
735.465	2316
735.517	2317
735.568	2314
735.619	2300
735.671	2359
735.722	2324
735.773	2322
735.825	2295
735.876	2269
735.927	2316
735.979	2316
736.03	2321
736.081	2302
736.133	2313
736.184	2275
736.235	2286
736.287	2325
736.338	2273
736.389	2293
736.441	2280
736.492	2254
736.543	2276
736.595	2285
736.646	2285
736.697	2324
736.749	2319
736.8	2254
736.851	2318
736.903	2290
736.954	2287
737.005	2278
737.057	2297
737.108	2310
737.159	2337
737.211	2289
737.262	2280
737.313	2324
737.365	2278
737.416	2314
737.467	2291
737.518	2286
737.57	2340
737.621	2319
737.672	2263
737.724	2312
737.775	2300
737.826	2312
737.878	2312
737.929	2349
737.98	2313
738.032	2280
738.083	2309
738.134	2268
738.186	2293
738.237	2282
738.288	2267
738.339	2294
738.391	2269
738.442	2281
738.493	2320
738.545	2343
738.596	2312
738.647	2291
738.699	2289
738.75	2268
738.801	2302
738.853	2268
738.904	2267
738.955	2272
739.006	2269
739.058	2282
739.109	2261
739.16	2253
739.212	2261
739.263	2303
739.314	2244
739.366	2269
739.417	2268
739.468	2259
739.519	2290
739.571	2262
739.622	2262
739.673	2215
739.725	2243
739.776	2233
739.827	2225
739.878	2251
739.93	2212
739.981	2228
740.032	2223
740.084	2238
740.135	2216
740.186	2194
740.237	2230
740.289	2212
740.34	2175
740.391	2189
740.443	2210
740.494	2225
740.545	2173
740.596	2177
740.648	2179
740.699	2175
740.75	2160
740.802	2193
740.853	2193
740.904	2185
740.956	2171
741.007	2189
741.058	2186
741.109	2168
741.161	2201
741.212	2187
741.263	2196
741.314	2147
741.366	2145
741.417	2189
741.468	2171
741.52	2129
741.571	2128
741.622	2147
741.673	2181
741.725	2157
741.776	2108
741.827	2124
741.878	2127
741.93	2126
741.981	2140
742.032	2132
742.083	2138
742.135	2115
742.186	2159
742.237	2083
742.289	2094
742.34	2121
742.391	2122
742.442	2129
742.494	2095
742.545	2123
742.596	2121
742.647	2126
742.699	2091
742.75	2101
742.801	2053
742.852	2089
742.904	2087
742.955	2105
743.006	2100
743.057	2078
743.109	2075
743.16	2088
743.211	2027
743.263	2089
743.314	2081
743.365	2083
743.416	2032
743.468	2065
743.519	2089
743.57	2078
743.621	2056
743.672	2059
743.724	2025
743.775	2035
743.826	2017
743.878	2067
743.929	2067
743.98	2035
744.031	2009
744.083	2045
744.134	2046
744.185	2008
744.236	2034
744.287	2047
744.339	2017
744.39	2060
744.441	2052
744.492	2031
744.544	2000
744.595	2030
744.646	2028
744.697	2041
744.749	2005
744.8	1998
744.851	2015
744.902	2010
744.954	2006
745.005	2032
745.056	2007
745.107	2030
745.159	1996
745.21	2023
745.261	2008
745.312	2011
745.363	1972
745.415	1968
745.466	1998
745.517	1968
745.568	2007
745.62	1982
745.671	1939
745.722	2023
745.773	2005
745.824	2015
745.876	1972
745.927	1982
745.978	1980
746.029	1974
746.081	1941
746.132	1980
746.183	1978
746.234	1986
746.285	1943
746.337	1978
746.388	1977
746.439	1937
746.49	1919
746.542	1941
746.593	1966
746.644	1918
746.695	1937
746.746	1906
746.798	1954
746.849	1910
746.9	1964
746.951	1936
747.003	1963
747.054	1933
747.105	1943
747.156	1897
747.207	1946
747.259	1951
747.31	1932
747.361	1896
747.412	1929
747.463	1916
747.515	1941
747.566	1900
747.617	1977
747.668	1932
747.719	1927
747.771	1897
747.822	1905
747.873	1903
747.924	1931
747.975	1885
748.027	1912
748.078	1886
748.129	1888
748.18	1889
748.231	1897
748.283	1892
748.334	1913
748.385	1883
748.436	1937
748.487	1858
748.539	1882
748.59	1903
748.641	1901
748.692	1876
748.743	1873
748.795	1929
748.846	1907
748.897	1877
748.948	1904
748.999	1863
749.05	1864
749.102	1827
749.153	1886
749.204	1882
749.255	1911
749.306	1857
749.358	1897
749.409	1852
749.46	1859
749.511	1876
749.562	1847
749.614	1866
749.665	1886
749.716	1863
749.767	1860
749.818	1855
749.869	1852
749.921	1853
749.972	1828
750.023	1855
750.074	1860
750.125	1850
750.177	1841
750.228	1829
750.279	1819
750.33	1808
750.381	1853
750.432	1816
750.484	1800
750.535	1845
750.586	1836
750.637	1836
750.688	1828
750.739	1815
750.791	1848
750.842	1817
750.893	1854
750.944	1809
750.995	1830
751.046	1752
751.098	1830
751.149	1854
751.2	1807
751.251	1794
751.302	1842
751.353	1804
751.404	1810
751.456	1827
751.507	1790
751.558	1800
751.609	1760
751.66	1767
751.711	1790
751.763	1779
751.814	1794
751.865	1746
751.916	1755
751.967	1758
752.018	1770
752.07	1786
752.121	1783
752.172	1812
752.223	1792
752.274	1764
752.325	1748
752.376	1798
752.428	1744
752.479	1785
752.53	1757
752.581	1774
752.632	1784
752.683	1761
752.734	1710
752.786	1690
752.837	1753
752.888	1756
752.939	1741
752.99	1756
753.041	1735
753.092	1739
753.144	1739
753.195	1731
753.246	1744
753.297	1765
753.348	1729
753.399	1723
753.45	1703
753.502	1740
753.553	1704
753.604	1703
753.655	1705
753.706	1708
753.757	1693
753.808	1732
753.859	1704
753.911	1703
753.962	1720
754.013	1720
754.064	1681
754.115	1651
754.166	1668
754.217	1672
754.269	1696
754.32	1694
754.371	1694
754.422	1689
754.473	1692
754.524	1692
754.575	1656
754.626	1696
754.678	1673
754.729	1688
754.78	1664
754.831	1673
754.882	1664
754.933	1643
754.984	1644
755.035	1657
755.086	1676
755.138	1638
755.189	1643
755.24	1662
755.291	1675
755.342	1663
755.393	1676
755.444	1632
755.495	1666
755.547	1667
755.598	1610
755.649	1615
755.7	1633
755.751	1634
755.802	1649
755.853	1627
755.904	1628
755.955	1635
756.006	1654
756.058	1643
756.109	1629
756.16	1605
756.211	1637
756.262	1583
756.313	1614
756.364	1595
756.415	1612
756.466	1618
756.518	1615
756.569	1614
756.62	1616
756.671	1616
756.722	1607
756.773	1578
756.824	1606
756.875	1659
756.926	1605
756.977	1609
757.029	1618
757.08	1595
757.131	1633
757.182	1573
757.233	1575
757.284	1571
757.335	1609
757.386	1575
757.437	1591
757.488	1571
757.539	1606
757.59	1577
757.642	1568
757.693	1532
757.744	1562
757.795	1570
757.846	1571
757.897	1537
757.948	1570
757.999	1567
758.05	1581
758.101	1582
758.152	1578
758.203	1555
758.255	1566
758.306	1561
758.357	1530
758.408	1535
758.459	1567
758.51	1528.14
758.561	1537.23
758.612	1537.51
758.663	1537.01
758.714	1553.45
758.765	1524
758.816	1534.4
758.867	1544.77
758.919	1554.85
758.97	1548.71
759.021	1535.38
759.072	1539.1
759.123	1522.1
759.174	1528.16
759.225	1532.16
759.276	1548.46
759.327	1532.16
759.378	1543.87
759.429	1507.18
759.48	1502.7
759.531	1526.4
759.582	1524.51
759.633	1520.56
759.685	1541.31
759.736	1534.64
759.787	1535.18
759.838	1517.19
759.889	1531.07
759.94	1522.79
759.991	1485.58
760.042	1467.17
760.093	1481.34
760.144	1497.3
760.195	1488.04
760.246	1477.55
760.297	1472.48
760.348	1488.35
760.399	1465.66
760.45	1476.69
760.501	1480.29
760.552	1512.23
760.603	1477.16
760.655	1487.97
760.706	1439.75
760.757	1469.05
760.808	1485.9
760.859	1468.74
760.91	1474.29
760.961	1496.54
761.012	1457.38
761.063	1449.69
761.114	1450.36
761.165	1448.66
761.216	1471.15
761.267	1474.91
761.318	1434.78
761.369	1432.26
761.42	1473.31
761.471	1458.53
761.522	1457.59
761.573	1452.42
761.624	1453.01
761.675	1444.34
761.726	1439.89
761.777	1439.82
761.828	1452.02
761.88	1442.7
761.931	1443.94
761.982	1446.12
762.033	1437.07
762.084	1426.88
762.135	1428.05
762.186	1427.26
762.237	1445.51
762.288	1416.64
762.339	1415.99
762.39	1419.33
762.441	1403.2
762.492	1408.66
762.543	1417.11
762.594	1403.01
762.645	1391.94
762.696	1404.28
762.747	1404.76
762.798	1427.07
762.849	1394.32
762.9	1417.97
762.951	1410.92
763.002	1403.8
763.053	1405.53
763.104	1404.21
763.155	1387.89
763.206	1390.49
763.257	1390.37
763.308	1368.36
763.359	1376.83
763.41	1406.26
763.461	1378.68
763.512	1372.21
763.563	1361.72
763.614	1365.04
763.665	1378.46
763.678	1382
763.729	1382
763.78	1385
763.832	1401
763.883	1368
763.934	1381
763.986	1364
764.037	1348
764.088	1336
764.139	1360
764.191	1356
764.242	1335
764.293	1352
764.345	1370
764.396	1346
764.447	1337
764.498	1355
764.55	1375
764.601	1312
764.652	1351
764.704	1378
764.755	1345
764.806	1346
764.857	1341
764.909	1324
764.96	1355
765.011	1311
765.062	1328
765.114	1364
765.165	1317
765.216	1322
765.268	1342
765.319	1318
765.37	1319
765.421	1324
765.473	1344
765.524	1319
765.575	1291
765.626	1329
765.678	1314
765.729	1334
765.78	1307
765.831	1299
765.883	1313
765.934	1314
765.985	1328
766.036	1310
766.088	1328
766.139	1313
766.19	1324
766.242	1291
766.293	1292
766.344	1291
766.395	1283
766.447	1264
766.498	1283
766.549	1303
766.6	1306
766.652	1284
766.703	1289
766.754	1263
766.805	1275
766.857	1296
766.908	1242
766.959	1271
767.01	1274
767.062	1268
767.113	1287
767.164	1272
767.215	1248
767.267	1280
767.318	1302
767.369	1265
767.42	1264
767.472	1249
767.523	1263
767.574	1267
767.625	1262
767.677	1244
767.728	1268
767.779	1250
767.83	1268
767.882	1242
767.933	1285
767.984	1246
768.035	1255
768.087	1255
768.138	1244
768.189	1227
768.24	1253
768.292	1256
768.343	1231
768.394	1221
768.445	1269
768.497	1201
768.548	1216
768.599	1223
768.65	1219
768.701	1216
768.753	1229
768.804	1203
768.855	1243
768.906	1214
768.958	1227
769.009	1194
769.06	1256
769.111	1210
769.163	1212
769.214	1189
769.265	1242
769.316	1203
769.367	1214
769.419	1215
769.47	1222
769.521	1189
769.572	1212
769.624	1208
769.675	1188
769.726	1173
769.777	1172
769.828	1214
769.88	1198
769.931	1185
769.982	1181
770.033	1207
770.085	1177
770.136	1153
770.187	1159
770.238	1186
770.289	1162
770.341	1179
770.392	1194
770.443	1184
770.494	1199
770.546	1143
770.597	1154
770.648	1163
770.699	1138
770.75	1142
770.802	1174
770.853	1145
770.904	1185
770.955	1140
771.006	1168
771.058	1131
771.109	1151
771.16	1138
771.211	1153
771.263	1155
771.314	1151
771.365	1162
771.416	1125
771.467	1128
771.519	1159
771.57	1142
771.621	1135
771.672	1119
771.723	1104
771.775	1114
771.826	1133
771.877	1115
771.928	1123
771.979	1119
772.031	1106
772.082	1099
772.133	1107
772.184	1102
772.235	1105
772.287	1117
772.338	1091
772.389	1151
772.44	1080
772.491	1088
772.543	1110
772.594	1102
772.645	1094
772.696	1106
772.747	1093
772.799	1064
772.85	1081
772.901	1058
772.952	1073
773.003	1050
773.055	1123
773.106	1109
773.157	1074
773.208	1082
773.259	1074
773.31	1082
773.362	1074
773.413	1052
773.464	1065
773.515	1070
773.566	1095
773.618	1051
773.669	1078
773.72	1074
773.771	1071
773.822	1050
773.873	1088
773.925	1030
773.976	1077
774.027	1073
774.078	1057
774.129	1042
774.18	1054
774.232	1083
774.283	1054
774.334	1049
774.385	1063
774.436	1029
774.488	1037
774.539	1045
774.59	1070
774.641	1046
774.692	1064
774.743	1043
774.795	1057
774.846	1027
774.897	1050
774.948	1044
774.999	1025
775.05	1002
775.102	1017
775.153	1013
775.204	1022
775.255	1026
775.306	1039
775.357	1023
775.409	1022
775.46	990
775.511	1016
775.562	1019
775.613	1012
775.664	1037
775.716	1043
775.767	1032
775.818	1000
775.869	986
775.92	1018
775.971	1019
776.023	1015
776.074	1000
776.125	1024
776.176	1025
776.227	1004
776.278	985
776.329	999
776.381	1004
776.432	1002
776.483	978
776.534	1003
776.585	980
776.636	1023
776.688	983
776.739	1011
776.79	958
776.841	1005
776.892	1014
776.943	998
776.994	983
777.046	985
777.097	981
777.148	956
777.199	997
777.25	961
777.301	935
777.352	984
777.404	966
777.455	988
777.506	965
777.557	976
777.608	957
777.659	944
777.71	970
777.762	966
777.813	962
777.864	970
777.915	961
777.966	949
778.017	947
778.068	957
778.12	961
778.171	957
778.222	962
778.273	955
778.324	932
778.375	976
778.426	926
778.477	928
778.529	928
778.58	951
778.631	936
778.682	904
778.733	932
778.784	956
778.835	956
778.886	947
778.938	937
778.989	943
779.04	959
779.091	926
779.142	933
779.193	920
779.244	932
779.295	941
779.347	909
779.398	910
779.449	942
779.5	897
779.551	900
779.602	929
779.653	916
779.704	886
779.755	900
779.807	925
779.858	912
779.909	900
779.96	890
780.011	918
780.062	927
780.113	900
780.164	890
780.216	921
780.267	888
780.318	944
780.369	889
780.42	903
780.471	901
780.522	878
780.573	878
780.624	898
780.675	874
780.727	893
780.778	894
780.829	891
780.88	888
780.931	884
780.982	877
781.033	910
781.084	889
781.135	896
781.187	871
781.238	883
781.289	860
781.34	887
781.391	874
781.442	886
781.493	870
781.544	863
781.595	855
781.646	894
781.698	879
781.749	874
781.8	855
781.851	856
781.902	848
781.953	861
782.004	863
782.055	872
782.106	841
782.157	866
782.208	848
782.26	889
782.311	868
782.362	834
782.413	872
782.464	860
782.515	846
782.566	835
782.617	860
782.668	847
782.719	836
782.77	867
782.821	832
782.872	855
782.924	861
782.975	827
783.026	834
783.077	843
783.128	831
783.179	834
783.23	811
783.281	852
783.332	811
783.383	806
783.434	804
783.485	861
783.536	805
783.588	859
783.639	813
783.69	836
783.741	826
783.792	800
783.843	813
783.894	810
783.945	794
783.996	801
784.047	806
784.098	800
784.149	822
784.2	800
784.252	802
784.303	805
784.354	798
784.405	803
784.456	791
784.507	792
784.558	801
784.609	773
784.66	782
784.711	807
784.762	775
784.813	796
784.864	802
784.915	787
784.966	819
785.017	794
785.068	799
785.12	772
785.171	785
785.222	763
785.273	790
785.324	792
785.375	760
785.426	786
785.477	777
785.528	774
785.579	783
785.63	781
785.681	781
785.732	806
785.783	772
785.834	775
785.885	749
785.936	750
785.987	763
786.038	779
786.089	765
786.141	788
786.192	771
786.243	752
786.294	775
786.345	772
786.396	755
786.447	753
786.498	746
786.549	748
786.6	780
786.651	759
786.702	762
786.753	750
786.804	764
786.855	772
786.906	752
786.957	753
787.008	753
787.059	728
787.11	750
787.161	774
787.212	733
787.263	773
787.314	700
787.365	725
787.416	752
787.467	753
787.518	731
787.57	748
787.621	756
787.672	746
787.723	729
787.774	762
787.825	734
787.876	760
787.927	710
787.978	721
788.029	732
788.08	746
788.131	713
788.182	757
788.233	740
788.284	703
788.335	713
788.386	727
788.437	692
788.488	722
788.539	717
788.59	723
788.641	698
788.692	692
788.743	728
788.794	723
788.845	713
788.896	711
788.947	735
788.998	711
789.049	709
789.1	717
789.151	690
789.202	719
789.253	715
789.304	713
789.355	695
789.406	704
789.457	680
789.508	673
789.559	703
789.61	710
789.661	698
789.712	695
789.763	688
789.814	685
789.865	692
789.916	701
789.967	667
790.018	702
790.069	682
790.12	672
790.171	687
790.222	680
790.273	701
790.324	676
790.375	700
790.426	655
790.477	680
790.528	661
790.579	670
790.63	669
790.681	698
790.732	676
790.783	683
790.834	667
790.885	687
790.936	696
790.987	666
791.038	660
791.089	675
791.14	661
791.191	658
791.242	651
791.293	673
791.344	656
791.395	669
791.446	681
791.497	665
791.548	676
791.599	646
791.65	653
791.701	672
791.752	651
791.803	653
791.854	632
791.905	630
791.956	637
792.007	650
792.058	656
792.109	660
792.16	636
792.211	621
792.262	643
792.313	643
792.363	636
792.414	648
792.465	654
792.516	622
792.567	647
792.618	637
792.669	633
792.72	637
792.771	656
792.822	646
792.873	636
792.924	636
792.975	615
793.026	624
793.077	637
793.128	633
793.179	620
793.23	612
793.281	599
793.332	616
793.383	627
793.434	606
793.485	607
793.536	622
793.587	625
793.638	596
793.689	623
793.74	612
793.79	603
793.841	583
793.892	637
793.943	620
793.994	624
794.045	593
794.096	615
794.147	639
794.198	613
794.249	611
794.3	603
794.351	622
794.402	607
794.453	615
794.504	590
794.555	604
794.606	601
794.657	598
794.708	597
794.758	615
794.809	602
794.86	596
794.911	604
794.962	596
795.013	593
795.064	605
795.115	590
795.166	590
795.217	625
795.268	594
795.319	599
795.37	586
795.421	619
795.472	588
795.523	574
795.573	588
795.624	577
795.675	567
795.726	572
795.777	585
795.828	593
795.879	588
795.93	610
795.981	577
796.032	580
796.083	571
796.134	577
796.185	596
796.236	599
796.286	574
796.337	572
796.388	581
796.439	560
796.49	589
796.541	594
796.592	557
796.643	589
796.694	570
796.745	564
796.796	579
796.847	569
796.897	555
796.948	569
796.999	563
797.05	572
797.101	567
797.152	547
797.203	552
797.254	549
797.305	543
797.356	565
797.407	556
797.458	546
797.508	538
797.559	560
797.61	545
797.661	573
797.712	545
797.763	539
797.814	534
797.865	547
797.916	570
797.967	574
798.018	536
798.068	541
798.119	522
798.17	546
798.221	551
798.272	541
798.323	565
798.374	551
798.425	552
798.476	518
798.526	539
798.577	531
798.628	543
798.679	536
798.73	535
798.781	537
798.832	535
798.883	527
798.934	531
798.984	518
799.035	505
799.086	533
799.137	541
799.188	537
799.239	530
799.29	529
799.341	523
799.392	534
799.443	524
799.493	533
799.544	503
799.595	522
799.646	519
799.697	526
799.748	496
799.799	537
799.85	507
799.9	516
799.951	517
800.002	496
800.053	508
800.104	506
800.155	498
800.206	526
800.257	533
800.307	518
800.358	493
800.409	500
800.46	507
800.511	515
800.562	515
800.613	497
800.664	505
800.714	501
800.765	518
800.816	525
800.867	539
800.918	504
800.969	504
801.02	491
801.07	498
801.121	515
801.172	475
801.223	505
801.274	489
801.325	500
801.376	489
801.427	501
801.477	504
801.528	502
801.579	503
801.63	507
801.681	499
801.732	492
801.783	508
801.833	492
801.884	495
801.935	492
801.986	484
802.037	485
802.088	485
802.139	486
802.189	468
802.24	494
802.291	486
802.342	498
802.393	474
802.444	470
802.495	478
802.545	464
802.596	470
802.647	483
802.698	483
802.749	481
802.8	472
802.85	476
802.901	468
802.952	458
803.003	471
803.054	482
803.105	481
803.155	481
803.206	480
803.257	468
803.308	449
803.359	462
803.41	463
803.46	470
803.511	473
803.562	464
803.613	475
803.664	478
803.715	468
803.765	451
803.816	460
803.867	467
803.918	447
803.969	466
804.02	444
804.07	465
804.121	442
804.172	449
804.223	440
804.274	454
804.325	476
804.375	466
804.426	451
804.477	451
804.528	433
804.579	451
804.63	443
804.68	448
804.731	448
804.782	458
804.833	459
804.884	444
804.934	439
804.985	431
805.036	442
805.087	454
805.138	442
805.188	439
805.239	444
805.29	441
805.341	464
805.392	438
805.443	422
805.493	454.91
805.544	465.57
805.595	449.957
805.646	436.48
805.697	435.854
805.747	445.296
805.798	433.108
805.849	420.432
805.9	439.071
805.951	436.344
806.001	442.167
806.052	430.485
806.103	444.561
806.154	422.91
806.205	428.292
806.255	443.944
806.306	432.245
806.357	427.532
806.408	435.824
806.459	433.613
806.509	439.375
806.56	408.717
806.611	405.221
806.662	418.084
806.713	430.937
806.763	435.525
806.814	429.638
806.865	419.513
806.916	431.52
806.967	426.124
807.017	424.759
807.068	417.612
807.119	422.167
807.17	432.986
807.22	420.868
807.271	430.482
807.322	418.384
807.373	410.268
807.424	425.648
807.474	419.712
807.525	424.004
807.576	421.458
807.627	422.568
807.678	412.663
807.728	421.76
807.779	421.942
807.83	410.633
807.881	415.151
807.931	415.266
807.982	414.883
808.033	414.672
808.084	409.468
808.135	427.833
808.185	407.608
808.236	411.347
808.287	417.468
808.338	408.846
808.388	402.378
808.439	411.276
808.49	407.527
808.541	404.218
808.591	407.475
808.642	395.651
808.693	403.878
808.744	401.111
808.795	410.451
808.845	397.479
808.896	411.208
808.947	409.977
808.998	400.476
809.048	397.144
809.099	393.73
809.15	396.956
809.201	387.978
809.251	395.795
809.302	401.626
809.353	401.108
809.404	398.826
809.454	392.649
809.505	393.941
809.556	386.546
809.607	397.33
809.658	389.897
809.708	384.279
809.759	389.754
809.81	394.551
809.861	395.056
809.911	398.919
809.962	390.694
810.013	396.095
810.064	394.267
810.114	384.27
810.165	391.757
810.216	377.997
810.267	366.131
810.317	386.456
810.368	391.289
810.419	387.708
810.469	379.48
810.52	386.216
810.571	376.498
810.622	371.576
810.627	371
810.678	377
810.729	390
810.78	386
810.831	385
810.882	376
810.933	380
810.984	370
811.035	370
811.086	376
811.137	385
811.188	402
811.239	390
811.29	386
811.341	375
811.392	373
811.443	371
811.494	351
811.545	377
811.596	378
811.648	368
811.699	380
811.75	371
811.801	386
811.852	372
811.903	357
811.954	365
812.005	367
812.056	357
812.107	360
812.158	367
812.209	354
812.26	372
812.311	367
812.362	364
812.413	374
812.464	374
812.515	362
812.566	373
812.617	360
812.668	387
812.719	367
812.77	366
812.821	356
812.872	354
812.923	361
812.974	351
813.025	361
813.076	371
813.127	360
813.178	360
813.229	359
813.28	362
813.331	339
813.382	349
813.433	358
813.484	346
813.535	371
813.586	355
813.637	370
813.688	351
813.739	345
813.79	351
813.841	342
813.892	347
813.943	350
813.994	352
814.045	348
814.096	368
814.147	342
814.198	370
814.249	357
814.3	355
814.351	359
814.402	341
814.453	346
814.504	352
814.555	347
814.606	348
814.657	340
814.708	346
814.759	350
814.81	345
814.861	326
814.912	337
814.963	335
815.014	352
815.065	338
815.116	343
815.167	338
815.217	341
815.268	334
815.319	335
815.37	335
815.421	341
815.472	340
815.523	332
815.574	338
815.625	331
815.676	335
815.727	324
815.778	333
815.829	344
815.88	327
815.931	321
815.982	350
816.033	337
816.084	332
816.135	326
816.186	339
816.237	335
816.288	340
816.339	348
816.39	344
816.441	346
816.492	335
816.543	327
816.594	335
816.645	329
816.696	326
816.747	330
816.798	322
816.849	323
816.9	345
816.951	314
817.001	335
817.052	314
817.103	328
817.154	328
817.205	338
817.256	336
817.307	321
817.358	332
817.409	321
817.46	326
817.511	335
817.562	312
817.613	328
817.664	329
817.715	308
817.766	305
817.817	316
817.868	307
817.919	317
817.97	321
818.021	325
818.071	310
818.122	317
818.173	307
818.224	318
818.275	321
818.326	311
818.377	317
818.428	296
818.479	318
818.53	316
818.581	309
818.632	312
818.683	314
818.734	319
818.785	310
818.836	300
818.887	301
818.938	314
818.988	326
819.039	313
819.09	305
819.141	308
819.192	300
819.243	310
819.294	311
819.345	325
819.396	305
819.447	307
819.498	325
819.549	302
819.6	312
819.651	310
819.702	303
819.753	293
819.803	307
819.854	312
819.905	298
819.956	305
820.007	284
820.058	299
820.109	279
820.16	304
820.211	308
820.262	302
820.313	297
820.364	286
820.415	309
820.465	284
820.516	304
820.567	301
820.618	291
820.669	286
820.72	295
820.771	308
820.822	288
820.873	280
820.924	287
820.975	310
821.026	288
821.076	275
821.127	285
821.178	299
821.229	287
821.28	279
821.331	281
821.382	288
821.433	283
821.484	272
821.535	272
821.586	293
821.637	293
821.687	289
821.738	286
821.789	289
821.84	277
821.891	282
821.942	274
821.993	288
822.044	284
822.095	277
822.146	278
822.196	302
822.247	280
822.298	278
822.349	281
822.4	298
822.451	286
822.502	281
822.553	293
822.604	284
822.655	276
822.706	287
822.756	281
822.807	286
822.858	275
822.909	287
822.96	287
823.011	285
823.062	280
823.113	275
823.164	278
823.214	280
823.265	276
823.316	278
823.367	273
823.418	276
823.469	267
823.52	266
823.571	273
823.622	284
823.672	258
823.723	265
823.774	271
823.825	288
823.876	273
823.927	276
823.978	266
824.029	268
824.08	266
824.13	264
824.181	274
824.232	279
824.283	278
824.334	284
824.385	277
824.436	285
824.487	274
824.537	259
824.588	269
824.639	277
824.69	256
824.741	259
824.792	275
824.843	278
824.893	263
824.944	259
824.995	266
825.046	270
825.097	269
825.148	255
825.199	253
825.25	252
825.3	258
825.351	270
825.402	255
825.453	251
825.504	271
825.555	256
825.606	251
825.657	277
825.707	261
825.758	251
825.809	257
825.86	269
825.911	251
825.962	267
826.013	261
826.063	253
826.114	261
826.165	248
826.216	262
826.267	254
826.318	259
826.369	244
826.419	253
826.47	250
826.521	258
826.572	270
826.623	244
826.674	244
826.725	239
826.775	246
826.826	239
826.877	249
826.928	251
826.979	238
827.03	241
827.08	251
827.131	241
827.182	272
827.233	241
827.284	257
827.335	251
827.386	252
827.436	254
827.487	247
827.538	264
827.589	246
827.64	256
827.691	259
827.741	262
827.792	248
827.843	250
827.894	252
827.945	254
827.996	258
828.046	245
828.097	247
828.148	251
828.199	235
828.25	231
828.301	242
828.351	252
828.402	234
828.453	241
828.504	257
828.555	257
828.606	228
828.656	234
828.707	238
828.758	241
828.809	241
828.86	246
828.911	247
828.961	240
829.012	228
829.063	239
829.114	233
829.165	226
829.216	232
829.266	243
829.317	250
829.368	230
829.419	244
829.47	221
829.52	238
829.571	226
829.622	237
829.673	249
829.724	236
829.774	230
829.825	232
829.876	235
829.927	247
829.978	248
830.029	231
830.079	240
830.13	233
830.181	240
830.232	237
830.283	238
830.333	236
830.384	227
830.435	231
830.486	232
830.537	241
830.587	230
830.638	230
830.689	221
830.74	231
830.791	235
830.841	225
830.892	236
830.943	247
830.994	227
831.045	241
831.095	211
831.146	226
831.197	242
831.248	241
831.299	237
831.349	245
831.4	245
831.451	221
831.502	230
831.553	221
831.603	236
831.654	224
831.705	223
831.756	220
831.807	222
831.857	241
831.908	224
831.959	217
832.01	221
832.061	218
832.111	232
832.162	219
832.213	225
832.264	226
832.315	232
832.365	217
832.416	217
832.467	224
832.518	231
832.568	236
832.619	232
832.67	225
832.721	220
832.772	228
832.822	212
832.873	227
832.924	228
832.975	216
833.025	231
833.076	226
833.127	230
833.178	217
833.229	206
833.279	207
833.33	210
833.381	225
833.432	216
833.482	218
833.533	213
833.584	224
833.635	209
833.685	204
833.736	224
833.787	222
833.838	224
833.889	224
833.939	213
833.99	216
834.041	232
834.092	216
834.142	216
834.193	215
834.244	221
834.295	210
834.345	211
834.396	202
834.447	204
834.498	222
834.548	213
834.599	205
834.65	199
834.701	201
834.751	209
834.802	212
834.853	212
834.904	204
834.954	211
835.005	210
835.056	212
835.107	206
835.157	208
835.208	205
835.259	220
835.31	205
835.36	221
835.411	207
835.462	218
835.513	210
835.563	193
835.614	209
835.665	208
835.716	200
835.766	203
835.817	202
835.868	198
835.919	210
835.969	200
836.02	204
836.071	210
836.122	197
836.172	207
836.223	196
836.274	216
836.325	210
836.375	199
836.426	206
836.477	210
836.528	209
836.578	207
836.629	203
836.68	213
836.73	216
836.781	199
836.832	199
836.883	196
836.933	198
836.984	199
837.035	195
837.086	211
837.136	209
837.187	204
837.238	200
837.288	189
837.339	199
837.39	197
837.441	192
837.491	192
837.542	201
837.593	214
837.643	192
837.694	207
837.745	195
837.796	195
837.846	200
837.897	203
837.948	189
837.999	193
838.049	203
838.1	193
838.151	202
838.201	191
838.252	194
838.303	190
838.354	197
838.404	194
838.455	198
838.506	186
838.556	187
838.607	190
838.658	197
838.708	206
838.759	185
838.81	183
838.861	199
838.911	207
838.962	188
839.013	196
839.063	190
839.114	199
839.165	197
839.216	190
839.266	191
839.317	205
839.368	184
839.418	194
839.469	191
839.52	180
839.57	194
839.621	199
839.672	202
839.722	195
839.773	176
839.824	188
839.875	193
839.925	202
839.976	186
840.027	188
840.077	199
840.128	184
840.179	189
840.229	177
840.28	187
840.331	199
840.381	194
840.432	186
840.483	197
840.534	201
840.584	181
840.635	191
840.686	174
840.736	180
840.787	179
840.838	180
840.888	188
840.939	185
840.99	196
841.04	194
841.091	202
841.142	196
841.192	199
841.243	191
841.294	193
841.344	191
841.395	186
841.446	189
841.496	181
841.547	186
841.598	182
841.648	171
841.699	188
841.75	192
841.8	185
841.851	180
841.902	178
841.952	180
842.003	192
842.054	179
842.104	183
842.155	183
842.206	182
842.256	172
842.307	183
842.358	178
842.408	172
842.459	183
842.51	188
842.56	173
842.611	188
842.662	187
842.712	182
842.763	194
842.814	186
842.864	180
842.915	185
842.966	180
843.016	189
843.067	180
843.118	180
843.168	178
843.219	169
843.269	181
843.32	179
843.371	181
843.421	175
843.472	172
843.523	171
843.573	165
843.624	178
843.675	176
843.725	178
843.776	162
843.827	179
843.877	166
843.928	179
843.979	177
844.029	179
844.08	165
844.13	170
844.181	178
844.232	168
844.282	172
844.333	172
844.384	189
844.434	178
844.485	181
844.536	160
844.586	177
844.637	172
844.687	162
844.738	158
844.789	166
844.839	186
844.89	171
844.941	174
844.991	160
845.042	170
845.092	166
845.143	160
845.194	163
845.244	179
845.295	164
845.346	174
845.396	167
845.447	163
845.497	164
845.548	176
845.599	168
845.649	174
845.7	169
845.75	178
845.801	171
845.852	159
845.902	174
845.953	168
846.004	158
846.054	174
846.105	157
846.155	167
846.206	172
846.257	169
846.307	163
846.358	171
846.409	172
846.459	169
846.51	175
846.56	156
846.611	166
846.661	169
846.712	164
846.763	164
846.813	165
846.864	176
846.915	165
846.965	169
847.016	164
847.066	168
847.117	166
847.168	164
847.218	155
847.269	158
847.319	169
847.37	177
847.421	163
847.471	164
847.522	160
847.572	173
847.623	162
847.674	161
847.724	170
847.775	161
847.825	173
847.876	152
847.926	166
847.977	156
848.028	172
848.078	158
848.129	157
848.179	169
848.23	159
848.281	172
848.331	150
848.382	155
848.432	173
848.483	162
848.534	155
848.584	179
848.635	166
848.685	160
848.736	157
848.786	152
848.837	152
848.888	172
848.938	156
848.989	155
849.039	158
849.09	161
849.14	161
849.191	157
849.242	157
849.292	152
849.343	151
849.393	157
849.444	158
849.494	175
849.545	148
849.596	151
849.646	162
849.697	161
849.747	151
849.798	161
849.848	150
849.899	164
849.95	145
850	155
850.051	151
850.101	158
850.152	148
850.202	161
850.253	160
850.303	156
850.354	155
850.405	158
850.455	157
850.506	154
850.556	152
850.607	160
850.657	150
850.708	167
850.758	151
850.809	159
850.86	153
850.91	142
850.961	148
851.011	156
851.062	166
851.112	163
851.163	156
851.213	151
851.264	146
851.314	144
851.365	151
851.416	153
851.466	159
851.517	147
851.567	144
851.618	137
851.668	154
851.719	145
851.769	136
851.82	157
851.87	162
851.921	154
851.971	145
852.022	157
852.073	137
852.123	151
852.174	152
852.224	144
852.275	156
852.325	156.94
852.376	149.97
852.426	142.172
852.477	155.546
852.527	148.347
852.578	141.824
852.628	146.261
852.679	151.404
852.729	158.969
852.78	136.814
852.831	147.044
852.881	142.323
852.932	149.375
852.982	147.595
853.033	154.378
853.083	147.732
853.134	142.563
853.184	146.259
853.235	136.501
853.285	149.907
853.336	148.197
853.386	150.299
853.437	137.596
853.487	138.248
853.538	142.014
853.588	127.449
853.639	140.167
853.689	143.719
853.74	141.969
853.79	146.43
853.841	141.398
853.891	149.154
853.942	143.125
853.992	143.937
854.043	140.795
854.093	141.123
854.144	143.779
854.194	139.78
854.245	144.406
854.295	141.647
854.346	142.846
854.396	140.64
854.447	138.894
854.497	141.011
854.548	131.541
854.598	138.997
854.649	145.174
854.699	145.275
854.75	139.942
854.8	137.352
854.851	138.751
854.901	139.042
854.952	140.674
855.002	138.821
855.053	144.548
855.103	142.319
855.154	138.567
855.204	135.584
855.255	136.265
855.305	139.612
855.356	140.485
855.406	139.399
855.457	141.978
855.507	137.175
855.558	138.265
855.608	140.969
855.659	137.163
855.709	141.043
855.76	135.641
855.81	134.788
855.861	140.484
855.911	143.079
855.962	138.627
856.012	135.18
856.063	141.687
856.113	136.612
856.164	133.025
856.214	130.181
856.265	137.14
856.315	140.454
856.366	134.701
856.416	139.427
856.467	139.467
856.517	138.05
856.568	138.846
856.618	132.601
856.668	133.914
856.719	133.576
856.769	132.428
856.82	133.06
856.87	130.417
856.921	126.261
856.971	127.598
857.022	134.57
857.072	135.926
857.123	129.612
857.173	128.363
857.224	134.86
857.274	139.273
857.325	136.41
857.352	131
857.403	129
857.453	129
857.504	130
857.555	145
857.606	126
857.656	141
857.707	130
857.758	129
857.809	127
857.859	131
857.91	137
857.961	133
858.012	124
858.063	122
858.113	116
858.164	121
858.215	132
858.266	143
858.316	137
858.367	133
858.418	131
858.469	134
858.519	128
858.57	138
858.621	134
858.672	118
858.722	128
858.773	130
858.824	119
858.875	129
858.925	131
858.976	126
859.027	132
859.078	124
859.128	121
859.179	124
859.23	126
859.281	120
859.331	133
859.382	124
859.433	131
859.483	137
859.534	130
859.585	131
859.636	121
859.686	122
859.737	130
859.788	127
859.839	120
859.889	136
859.94	137
859.991	135
860.042	129
860.092	122
860.143	117
860.194	119
860.245	121
860.295	136
860.346	126
860.397	127
860.447	122
860.498	124
860.549	126
860.6	120
860.65	120
860.701	116
860.752	124
860.802	125
860.853	130
860.904	124
860.955	131
861.005	131
861.056	115
861.107	131
861.158	126
861.208	124
861.259	120
861.31	117
861.36	129
861.411	117
861.462	114
861.513	121
861.563	127
861.614	115
861.665	124
861.715	124
861.766	113
861.817	125
861.868	127
861.918	131
861.969	129
862.02	123
862.07	124
862.121	119
862.172	120
862.223	117
862.273	124
862.324	123
862.375	116
862.425	132
862.476	115
862.527	120
862.577	121
862.628	118
862.679	124
862.73	121
862.78	127
862.831	125
862.882	117
862.932	109
862.983	118
863.034	128
863.084	115
863.135	118
863.186	130
863.237	122
863.287	130
863.338	126
863.389	120
863.439	122
863.49	116
863.541	111
863.591	127
863.642	120
863.693	123
863.744	119
863.794	103
863.845	113
863.896	117
863.946	121
863.997	121
864.048	122
864.098	123
864.149	119
864.2	127
864.25	123
864.301	121
864.352	109
864.402	117
864.453	121
864.504	110
864.555	114
864.605	113
864.656	122
864.707	113
864.757	108
864.808	118
864.859	111
864.909	120
864.96	119
865.011	127
865.061	109
865.112	111
865.163	110
865.213	118
865.264	125
865.315	115
865.365	116
865.416	115
865.467	105
865.517	113
865.568	105
865.619	116
865.669	114
865.72	113
865.771	112
865.821	108
865.872	110
865.923	106
865.973	111
866.024	114
866.075	115
866.125	109
866.176	119
866.227	107
866.277	105
866.328	114
866.379	114
866.429	113
866.48	115
866.531	107
866.581	110
866.632	106
866.683	118
866.733	108
866.784	104
866.835	114
866.885	117
866.936	111
866.987	108
867.037	106
867.088	115
867.138	109
867.189	113
867.24	112
867.29	104
867.341	110
867.392	106
867.442	112
867.493	124
867.544	104
867.594	103
867.645	123
867.696	120
867.746	108
867.797	94
867.848	108
867.898	113
867.949	115
867.999	115
868.05	107
868.101	114
868.151	117
868.202	118
868.253	110
868.303	109
868.354	109
868.405	106
868.455	114
868.506	109
868.556	109
868.607	111
868.658	120
868.708	121
868.759	91
868.81	101
868.86	114
868.911	108
868.961	102
869.012	105
869.063	120
869.113	117
869.164	112
869.215	120
869.265	113
869.316	110
869.367	119
869.417	114
869.468	110
869.518	115
869.569	103
869.62	110
869.67	111
869.721	106
869.771	106
869.822	113
869.873	107
869.923	103
869.974	105
870.025	110
870.075	111
870.126	108
870.176	118
870.227	100
870.278	106
870.328	110
870.379	105
870.43	100
870.48	109
870.531	114
870.581	100
870.632	108
870.683	107
870.733	113
870.784	105
870.834	104
870.885	108
870.936	107
870.986	112
871.037	104
871.087	114
871.138	124
871.189	101
871.239	93
871.29	94
871.34	105
871.391	108
871.442	105
871.492	106
871.543	111
871.593	106
871.644	98
871.695	103
871.745	104
871.796	98
871.846	103
871.897	114
871.948	103
871.998	110
872.049	97
872.099	92
872.15	104
872.201	97
872.251	94
872.302	104
872.352	103
872.403	98
872.453	91
872.504	101
872.555	96
872.605	96
872.656	103
872.706	102
872.757	105
872.808	104
872.858	91
872.909	95
872.959	110
873.01	108
873.06	89
873.111	97
873.162	98
873.212	94
873.263	98
873.313	99
873.364	96
873.415	108
873.465	98
873.516	101
873.566	102
873.617	101
873.667	106
873.718	89
873.769	106
873.819	97
873.87	102
873.92	112
873.971	103
874.021	102
874.072	95
874.123	100
874.173	97
874.224	105
874.274	101
874.325	100
874.375	103
874.426	96
874.477	99
874.527	97
874.578	108
874.628	102
874.679	88
874.729	93
874.78	105
874.83	97
874.881	96
874.932	96
874.982	99
875.033	97
875.083	100
875.134	99
875.184	98
875.235	95
875.285	96
875.336	93
875.387	94
875.437	102
875.488	99
875.538	95
875.589	96
875.639	104
875.69	102
875.74	87
875.791	105
875.841	104
875.892	106
875.943	94
875.993	99
876.044	94
876.094	89
876.145	100
876.195	97
876.246	99
876.296	94
876.347	99
876.397	97
876.448	100
876.499	93
876.549	86
876.6	97
876.65	96
876.701	96
876.751	98
876.802	101
876.852	100
876.903	100
876.953	102
877.004	99
877.054	100
877.105	86
877.155	90
877.206	99
877.257	102
877.307	98
877.358	89
877.408	103
877.459	91
877.509	93
877.56	94
877.61	99
877.661	103
877.711	86
877.762	92
877.812	96
877.863	89
877.913	95
877.964	93
878.014	96
878.065	100
878.115	97
878.166	94
878.216	86
878.267	95
878.318	94
878.368	107
878.419	109
878.469	96
878.52	95
878.57	95
878.621	95
878.671	87
878.722	88
878.772	94
878.823	101
878.873	95
878.924	89
878.974	93
879.025	88
879.075	91
879.126	89
879.176	86
879.227	99
879.277	99
879.328	100
879.378	95
879.429	93
879.479	84
879.53	93
879.58	88
879.631	87
879.681	94
879.732	93
879.782	92
879.833	93
879.883	102
879.934	85
879.984	81
880.035	95
880.085	89
880.136	97
880.186	86
880.237	94
880.287	96
880.338	89
880.388	97
880.439	86
880.489	99
880.54	86
880.59	83
880.641	87
880.691	83
880.742	84
880.792	95
880.842	94
880.893	94
880.943	95
880.994	88
881.044	96
881.095	84
881.145	87
881.196	87
881.246	88
881.297	94
881.347	89
881.398	75
881.448	96
881.499	93
881.549	90
881.6	93
881.65	87
881.701	102
881.751	84
881.802	87
881.852	90
881.902	88
881.953	82
882.003	88
882.054	97
882.104	80
882.155	88
882.205	88
882.256	88
882.306	94
882.357	97
882.407	97
882.458	89
882.508	95
882.559	84
882.609	82
882.659	89
882.71	87
882.76	85
882.811	78
882.861	88
882.912	86
882.962	86
883.013	85
883.063	81
883.114	91
883.164	88
883.214	83
883.265	88
883.315	84
883.366	82
883.416	85
883.467	84
883.517	93
883.568	82
883.618	81
883.669	91
883.719	87
883.769	85
883.82	76
883.87	86
883.921	91
883.971	78
884.022	78
884.072	83
884.123	84
884.173	90
884.223	88
884.274	83
884.324	80
884.375	89
884.425	82
884.476	81
884.526	84
884.577	80
884.627	78
884.677	89
884.728	86
884.778	81
884.829	85
884.879	88
884.93	85
884.98	80
885.03	87
885.081	90
885.131	91
885.182	92
885.232	76
885.283	90
885.333	86
885.383	86
885.434	88
885.484	82
885.535	81
885.585	72
885.635	81
885.686	85
885.736	92
885.787	81
885.837	77
885.888	90
885.938	83
885.988	78
886.039	81
886.089	79
886.14	84
886.19	82
886.241	88
886.291	91
886.341	85
886.392	86
886.442	74
886.493	75
886.543	94
886.593	90
886.644	85
886.694	86
886.745	85
886.795	80
886.845	86
886.896	81
886.946	90
886.997	78
887.047	82
887.097	80
887.148	76
887.198	79
887.249	75
887.299	75
887.349	93
887.4	82
887.45	84
887.501	90
887.551	79
887.602	78
887.652	79
887.702	78
887.753	78
887.803	86
887.853	85
887.904	83
887.954	80
888.005	79
888.055	73
888.105	73
888.156	78
888.206	72
888.257	65
888.307	70
888.357	80
888.408	83
888.458	79
888.509	79
888.559	80
888.609	75
888.66	80
888.71	77
888.76	77
888.811	82
888.861	72
888.912	81
888.962	73
889.012	81
889.063	67
889.113	78
889.163	80
889.214	74
889.264	75
889.315	78
889.365	75
889.415	83
889.466	77
889.516	86
889.566	78
889.617	74
889.667	69
889.718	84
889.768	78
889.818	79
889.869	77
889.919	74
889.969	77
890.02	67
890.07	69
890.12	70
890.171	78
890.221	71
890.272	82
890.322	74
890.372	87
890.423	83
890.473	71
890.523	72
890.574	80
890.624	81
890.674	77
890.725	77
890.775	80
890.826	70
890.876	73
890.926	68
890.977	76
891.027	83
891.077	70
891.128	77
891.178	85
891.228	79
891.279	71
891.329	71
891.379	80
891.43	75
891.48	71
891.53	81
891.581	78
891.631	77
891.681	69
891.732	63
891.782	71
891.832	76
891.883	73
891.933	82
891.983	66
892.034	76
892.084	70
892.134	64
892.185	69
892.235	75
892.286	76
892.336	76
892.386	75
892.437	81
892.487	76
892.537	70
892.587	67
892.638	83
892.688	80
892.738	77
892.789	80
892.839	66
892.889	73
892.94	64
892.99	73
893.04	78
893.091	71
893.141	69
893.191	74
893.242	72
893.292	73
893.342	70
893.393	70
893.443	78
893.493	74
893.544	72
893.594	73
893.644	71
893.695	70
893.745	70
893.795	79
893.846	74
893.896	66
893.946	78
893.996	71
894.047	76
894.097	72
894.147	69
894.198	73
894.248	72
894.298	61
894.349	71
894.399	68
894.449	80
894.5	69
894.55	70
894.6	84
894.65	67
894.701	69
894.751	71
894.801	74
894.852	71
894.902	68
894.952	66
895.003	74
895.053	70
895.103	71
895.153	72
895.204	72
895.254	70
895.304	76
895.355	72
895.405	74
895.455	62
895.505	66
895.556	63
895.606	73
895.656	80
895.707	67
895.757	67
895.807	76
895.858	71
895.908	68
895.958	64
896.008	71
896.059	79
896.109	69
896.159	62
896.21	72
896.26	65
896.31	69
896.36	70
896.411	65
896.461	68
896.511	63
896.561	58
896.612	73
896.662	66
896.712	67
896.763	68
896.813	71
896.863	60
896.913	69
896.964	67
897.014	61
897.064	66
897.115	60
897.165	63
897.215	72
897.265	75
897.316	72
897.366	64
897.416	72
897.466	66
897.517	60
897.567	56
897.617	64
897.667	68
897.718	73
897.768	66
897.818	69
897.868	69
897.919	57
897.969	67
898.019	61
898.069	66
898.12	71
898.17	65
898.22	64
898.27	68
898.321	65
898.371	68
898.421	63
898.471	69
898.522	66
898.572	59
898.622	62
898.672	68
898.723	64
898.773	62
898.823	65
898.873	69
898.924	60
898.974	57
899.024	57
899.074	69
899.125	60
899.175	51
899.225	73
899.275	69
899.326	63
899.376	64
899.426	71
899.476	61
899.527	69
899.577	66
899.627	71
899.677	68
899.728	74
899.778	64
899.828	61
899.878	66
899.928	64
899.979	70
