#Acq. time (s)=	3
#Accumulations=	2
#Range (nm)=	520...900
#Windows=	8
#Auto scanning=	Off
#Autofocus=	Off
#AutoExposure=	Off
#Spike filter=	Off
#Delay time (s)=	0
#Binning=	1
#Readout mode=	Signal
#DeNoise=	Off
#ICS correction=	Off
#Dark correction=	Off
#Inst. Process=	Off
#Detector temperature (°C)=	-59.98
#Instrument=	LabRAM HR Evol
#Detector=	Syncerity OE
#Objective=	x50_VIS
#Grating=	600 (500nm)
#ND Filter=	25%
#Laser=	514nm_Edge
#Hole=	199.981
#Range=	Visible
#StageXY=	Marzhauser
#StageZ=	Marzhauser
#X (µm)=	-9059.9
#Y (µm)=	4595.4
#Z (µm)=	-261.6
#Full time(mm:ss)=	1:32
#Project=	
#Sample=	
#Site=	
#Title=	PL_M7_280424
#Remark=	
#Date=	06.05.2024 16:50
#Acquired=	06.05.2024 16:50:20
520.044	59
520.097	57
520.149	57
520.201	59
520.254	53
520.306	60
520.359	57
520.411	54
520.464	57
520.516	56
520.569	45
520.621	53
520.674	53
520.726	53
520.778	53
520.831	52
520.883	54
520.936	57
520.988	46
521.041	58
521.093	52
521.146	53
521.198	54
521.25	60
521.303	62
521.355	48
521.408	53
521.46	60
521.513	56
521.565	51
521.617	56
521.67	54
521.722	58
521.775	51
521.827	59
521.88	62
521.932	60
521.984	54
522.037	51
522.089	55
522.142	60
522.194	55
522.247	56
522.299	60
522.352	59
522.404	61
522.456	59
522.509	60
522.561	61
522.614	59
522.666	53
522.719	61
522.771	62
522.823	57
522.876	65
522.928	60
522.981	68
523.033	52
523.086	61
523.138	60
523.19	54
523.243	59
523.295	63
523.348	55
523.4	66
523.453	54
523.505	51
523.557	57
523.61	60
523.662	56
523.715	54
523.767	53
523.82	59
523.872	59
523.924	58
523.977	60
524.029	54
524.082	61
524.134	62
524.186	57
524.239	62
524.291	62
524.344	56
524.396	58
524.449	60
524.501	58
524.553	54
524.606	59
524.658	58
524.711	59
524.763	55
524.815	52
524.868	57
524.92	52
524.973	65
525.025	58
525.078	59
525.13	57
525.182	63
525.235	52
525.287	56
525.34	62
525.392	60
525.444	54
525.497	64
525.549	56
525.602	61
525.654	60
525.706	51
525.759	58
525.811	61
525.864	55
525.916	62
525.969	57
526.021	60
526.073	62
526.126	55
526.178	50
526.231	59
526.283	62
526.335	67
526.388	55
526.44	58
526.493	53
526.545	63
526.597	59
526.65	55
526.702	50
526.755	60
526.807	58
526.859	55
526.912	59
526.964	57
527.017	56
527.069	59
527.121	61
527.174	62
527.226	53
527.279	56
527.331	55
527.383	63
527.436	52
527.488	57
527.54	56
527.593	59
527.645	46
527.698	54
527.75	47
527.802	56
527.855	52
527.907	49
527.96	52
528.012	57
528.064	55
528.117	62
528.169	53
528.222	55
528.274	55
528.326	61
528.379	55
528.431	65
528.484	51
528.536	57
528.588	51
528.641	58
528.693	47
528.745	64
528.798	50
528.85	56
528.903	59
528.955	66
529.007	57
529.06	54
529.112	56
529.164	50
529.217	49
529.269	53
529.322	54
529.374	58
529.426	55
529.479	57
529.531	56
529.584	57
529.636	53
529.688	52
529.741	54
529.793	51
529.845	56
529.898	52
529.95	53
530.003	57
530.055	53
530.107	64
530.16	59
530.212	67
530.264	57
530.317	57
530.369	57
530.422	66
530.474	50
530.526	56
530.579	65
530.631	59
530.683	60
530.736	64
530.788	58
530.841	61
530.893	59
530.945	68
530.998	57
531.05	62
531.102	60
531.155	67
531.207	60
531.259	63
531.312	53
531.364	60
531.417	56
531.469	57
531.521	53
531.574	55
531.626	59
531.678	60
531.731	58
531.783	56
531.835	58
531.888	61
531.94	56
531.992	59
532.045	52
532.097	65
532.15	57
532.202	64
532.254	53
532.307	65
532.359	57
532.411	63
532.464	57
532.516	55
532.568	48
532.621	66
532.673	58
532.726	61
532.778	58
532.83	63
532.883	69
532.935	69
532.987	54
533.04	65
533.092	50
533.144	66
533.197	58
533.249	57
533.301	59
533.354	60
533.406	58
533.458	73
533.511	70
533.563	74
533.615	67
533.668	66
533.72	64
533.773	70
533.825	60
533.877	62
533.93	70
533.982	73
534.034	61
534.087	72
534.139	63
534.191	64
534.244	59
534.296	73
534.348	68
534.401	62
534.453	73
534.505	74
534.558	73
534.61	79
534.662	69
534.715	84
534.767	78
534.819	84
534.872	82
534.924	79
534.976	78
535.029	88
535.081	77
535.133	87
535.186	91
535.238	94
535.29	83
535.343	89
535.395	84
535.447	84
535.5	81
535.552	88
535.604	83
535.657	78
535.709	88
535.761	90
535.814	74
535.866	89
535.918	81
535.971	88
536.023	78
536.075	84
536.128	77
536.18	86
536.232	80
536.285	78
536.337	85
536.389	78
536.442	72
536.494	73
536.546	70
536.599	78
536.651	77
536.703	81
536.755	65
536.808	70
536.86	79
536.912	77
536.965	72
537.017	84
537.069	70
537.122	76
537.174	73
537.226	80
537.279	77
537.331	76
537.383	79
537.436	69
537.488	84
537.54	68
537.593	74
537.645	82
537.697	71
537.75	76
537.802	82
537.854	73
537.906	75
537.959	62
538.011	71
538.063	79
538.116	74
538.168	78
538.22	74
538.273	73
538.325	77
538.377	76
538.43	73
538.482	77
538.534	79
538.586	84
538.639	81
538.691	77
538.743	71
538.796	72
538.848	69
538.9	73
538.953	64
539.005	77
539.057	74
539.109	71
539.162	73
539.214	72
539.266	74
539.319	71
539.371	79
539.423	78
539.476	80
539.528	81
539.58	81
539.633	71
539.685	76
539.737	71
539.789	70
539.842	83
539.894	80
539.946	79
539.999	84
540.051	74
540.103	86
540.155	82
540.208	75
540.26	81
540.312	81
540.365	88
540.417	74
540.469	77
540.521	79
540.574	77
540.626	76
540.678	83
540.731	92
540.783	85
540.835	74
540.888	87
540.94	85
540.992	88
541.044	79
541.097	87
541.149	92
541.201	84
541.254	84
541.306	81
541.358	85
541.41	94
541.463	78
541.515	83
541.567	87
541.62	91
541.672	82
541.724	86
541.776	92
541.829	82
541.881	89
541.933	91
541.985	92
542.038	81
542.09	97
542.142	87
542.195	91
542.247	79
542.299	84
542.351	92
542.404	93
542.456	84
542.508	87
542.56	90
542.613	92
542.665	77
542.717	99
542.77	94
542.822	91
542.874	86
542.926	89
542.979	92
543.031	90
543.083	90
543.135	84
543.188	94
543.24	90
543.292	94
543.344	91
543.397	101
543.449	94
543.501	86
543.554	89
543.606	106
543.658	88
543.71	79
543.763	93
543.815	79
543.867	99
543.919	102
543.972	90
544.024	97
544.076	109
544.128	90
544.181	103
544.233	97
544.285	101
544.337	93
544.39	93
544.442	100
544.494	107
544.547	102
544.599	103
544.651	104
544.703	108
544.755	97
544.808	105
544.86	98
544.912	109
544.965	102
545.017	106
545.069	92
545.121	113
545.174	116
545.226	106
545.278	97
545.33	106
545.383	105
545.435	117
545.487	109
545.539	112
545.591	107
545.644	116
545.696	104
545.748	105
545.8	116
545.853	108
545.905	106
545.957	106
546.009	114
546.062	112
546.114	111
546.166	117
546.218	115
546.271	116
546.323	113
546.375	111
546.427	104
546.48	112
546.532	111
546.584	116
546.636	106
546.689	124
546.741	123
546.793	128
546.845	115
546.898	104
546.95	109
547.002	123
547.054	118
547.106	130
547.159	126
547.211	118
547.263	119
547.315	125
547.368	127
547.42	127
547.472	120
547.524	130
547.577	129
547.629	122
547.681	126
547.733	134
547.785	139
547.838	137
547.89	121
547.942	128
547.994	126
548.047	131
548.099	130
548.151	135
548.203	135
548.255	134
548.308	132
548.36	152
548.412	128
548.464	125
548.517	123
548.569	135
548.621	135
548.673	136
548.725	132
548.778	144
548.83	128
548.882	130
548.934	140
548.987	139
549.039	143
549.091	135
549.143	138
549.195	138
549.248	129
549.3	154
549.352	144
549.404	143
549.456	132
549.509	149
549.561	152
549.613	139
549.665	148
549.718	154
549.77	147
549.822	148
549.874	144
549.926	140
549.979	155
550.031	158
550.083	144
550.135	151
550.187	155
550.24	158
550.292	159
550.344	168
550.396	156
550.448	168
550.501	162
550.553	165
550.605	164
550.657	168
550.709	157
550.762	177
550.814	178
550.866	177
550.918	165
550.97	179
551.023	166
551.075	181
551.127	183
551.179	195
551.231	181
551.284	187
551.336	193
551.388	198
551.44	199
551.492	209
551.545	197
551.597	217
551.649	225
551.701	235
551.753	242
551.806	234
551.858	242
551.91	260
551.962	272
552.014	311
552.067	300
552.119	334
552.171	374
552.223	420
552.275	467
552.327	588
552.38	757
552.432	1173
552.484	2604
552.536	5321
552.588	9201
552.641	15464
552.693	26130
552.745	32889
552.797	19000
552.849	7678
552.901	2594
552.954	1255
553.006	804
553.058	651
553.11	523
553.162	429
553.215	372
553.267	349
553.319	301
553.371	299
553.423	278
553.475	276
553.528	249
553.58	263
553.632	262
553.684	248
553.736	230
553.788	249
553.841	212
553.893	217
553.945	219
553.997	225
554.049	218
554.102	215
554.154	218
554.206	211
554.258	209
554.31	233
554.362	208
554.414	209
554.467	213
554.519	195
554.571	213
554.623	211
554.675	210
554.727	217
554.78	208
554.832	218
554.884	206
554.936	200
554.988	206
555.04	204
555.093	205
555.145	211
555.197	210
555.249	211
555.301	213
555.353	207
555.406	199
555.458	213
555.51	221
555.562	194
555.614	213
555.666	203
555.719	211
555.771	219
555.823	220
555.875	221
555.927	208
555.979	222
556.031	220
556.084	216
556.136	223
556.188	217
556.24	233
556.292	219
556.344	222
556.396	226
556.449	229
556.501	232
556.553	230
556.605	228
556.657	228
556.709	227
556.762	238
556.814	226
556.866	232
556.918	242
556.97	238
557.022	229
557.074	251
557.127	238
557.179	237
557.231	240
557.283	256
557.335	229
557.387	250
557.439	249
557.492	249
557.544	232
557.596	245
557.648	242
557.7	246
557.752	255
557.804	264
557.856	242
557.909	241
557.961	249
558.013	256
558.065	254
558.117	254
558.169	248
558.221	250
558.273	248
558.326	249
558.378	256
558.43	255
558.482	253
558.534	260
558.586	254
558.638	269
558.691	257
558.743	254
558.795	261
558.847	254
558.899	253
558.951	245
559.003	247
559.055	254
559.108	254
559.16	265
559.212	256
559.264	276
559.316	261
559.368	280
559.42	269
559.472	271
559.525	258
559.577	283
559.629	268
559.681	286
559.733	268
559.785	280
559.837	295
559.889	287
559.941	279
559.994	286
560.046	271
560.098	280
560.15	292
560.202	303
560.254	287
560.306	296
560.358	267
560.41	292
560.463	278
560.515	295
560.567	284
560.619	287
560.671	306
560.723	302
560.775	288
560.827	315
560.879	323
560.932	309
560.984	285
561.036	300
561.088	295
561.14	326
561.192	308
561.244	320
561.296	310
561.348	300
561.4	311
561.453	327
561.505	312
561.557	318
561.609	322
561.661	313
561.713	307
561.765	311
561.817	314
561.869	333
561.921	318
561.974	342
562.026	333
562.078	345
562.13	319
562.182	320
562.234	337
562.286	324
562.338	339
562.39	331
562.442	323
562.494	355
562.547	322
562.599	341
562.651	341
562.703	350
562.755	341
562.807	358
562.859	347
562.911	349
562.963	341
563.015	352
563.067	368
563.12	366
563.172	342
563.224	368
563.276	356
563.328	366
563.38	345
563.432	356
563.484	376
563.536	386
563.588	366
563.64	388
563.692	373
563.744	408
563.797	370
563.849	386
563.901	391
563.953	401
564.005	403
564.057	402
564.109	409
564.161	411
564.213	395
564.265	409
564.317	401
564.369	423
564.421	402
564.474	437
564.526	423
564.578	397
564.63	401
564.682	401
564.734	412
564.786	402
564.838	404
564.89	402
564.942	413
564.994	397
565.046	407
565.098	402
565.15	397
565.202	403
565.255	400
565.307	415
565.359	425
565.411	429
565.463	410
565.515	409
565.567	415
565.619	431
565.671	427
565.723	422
565.775	401
565.827	426
565.879	422
565.931	420
565.983	421
566.035	430
566.087	434
566.139	430
566.192	442
566.244	439
566.296	433
566.348	428
566.4	450
566.452	449
566.504	435
566.556	451
566.608	462
566.66	456
566.712	450
566.764	463
566.816	439
566.868	460
566.92	471
566.972	457
567.024	461
567.076	469
567.128	462
567.18	477
567.232	469
567.285	450
567.337	461
567.389	481
567.441	487
567.493	466
567.545	460
567.597	471
567.649	466
567.701	485
567.753	493
567.805	482
567.857	480
567.909	495
567.961	494
568.013	485
568.065	494
568.117	492.945
568.169	480.006
568.221	507.248
568.273	489.766
568.325	505.931
568.377	522.041
568.429	504.411
568.481	499.485
568.533	511.513
568.585	501.621
568.637	528.647
568.69	517.085
568.742	523.479
568.794	531.626
568.846	532.106
568.898	534.981
568.95	525.413
569.002	527.609
569.054	536.187
569.106	522.75
569.158	527.03
569.21	543.1
569.262	540.797
569.314	544.982
569.366	539.896
569.418	561.395
569.47	543.213
569.522	553.001
569.574	556.217
569.626	551.479
569.678	551.972
569.73	571.975
569.782	574.575
569.834	577.451
569.886	557.644
569.938	558.813
569.99	574.753
570.042	577.063
570.094	581.865
570.146	561.217
570.198	576.766
570.25	573.209
570.302	582.604
570.354	576.122
570.406	603.508
570.458	584.28
570.51	606.542
570.562	600.574
570.614	601.61
570.666	608.104
570.718	614.524
570.77	609.376
570.822	638.604
570.874	627.09
570.926	627.132
570.978	629.749
571.03	635.105
571.082	637.939
571.134	637.918
571.186	634.11
571.238	651.13
571.29	660.79
571.342	666.139
571.394	673.329
571.446	679.132
571.498	681.867
571.55	695.948
571.602	712.692
571.654	692.613
571.706	698.942
571.758	707.062
571.81	709.853
571.862	731.529
571.914	740.605
571.966	738.129
572.018	733.995
572.07	741.321
572.122	756.982
572.174	767.271
572.226	759.876
572.278	775.18
572.33	788.201
572.382	788.367
572.434	816.719
572.486	811.483
572.538	831.057
572.59	828.573
572.642	828.523
572.694	822.938
572.746	830.2
572.798	854.322
572.85	858.345
572.902	881.576
572.954	906.916
573.006	876.726
573.058	907.58
573.11	934.323
573.162	946.339
573.214	928.264
573.266	927.544
573.312	943
573.364	971
573.416	987
573.469	986
573.521	990
573.573	1019
573.625	1018
573.677	1022
573.73	1052
573.782	1109
573.834	1086
573.886	1115
573.938	1092
573.991	1135
574.043	1145
574.095	1205
574.147	1196
574.199	1225
574.252	1249
574.304	1214
574.356	1262
574.408	1331
574.46	1309
574.513	1365
574.565	1374
574.617	1367
574.669	1439
574.721	1469
574.774	1446
574.826	1478
574.878	1530
574.93	1525
574.982	1557
575.035	1595
575.087	1599
575.139	1664
575.191	1721
575.243	1705
575.296	1749
575.348	1698
575.4	1774
575.452	1785
575.504	1814
575.556	1792
575.609	1823
575.661	1827
575.713	1857
575.765	1867
575.817	1891
575.87	1887
575.922	1902
575.974	1916
576.026	1888
576.078	1923
576.131	1886
576.183	1892
576.235	1879
576.287	1853
576.339	1890
576.391	1900
576.444	1909
576.496	1847
576.548	1826
576.6	1794
576.652	1775
576.705	1772
576.757	1759
576.809	1766
576.861	1722
576.913	1675
576.965	1708
577.018	1645
577.07	1649
577.122	1610
577.174	1591
577.226	1596
577.279	1554
577.331	1581
577.383	1542
577.435	1485
577.487	1474
577.539	1478
577.592	1460
577.644	1450
577.696	1405
577.748	1375
577.8	1400
577.852	1382
577.905	1374
577.957	1376
578.009	1343
578.061	1333
578.113	1340
578.165	1301
578.218	1320
578.27	1287
578.322	1313
578.374	1262
578.426	1284
578.478	1235
578.531	1253
578.583	1246
578.635	1215
578.687	1212
578.739	1211
578.791	1224
578.844	1218
578.896	1190
578.948	1186
579	1195
579.052	1183
579.104	1194
579.157	1197
579.209	1194
579.261	1209
579.313	1199
579.365	1192
579.417	1193
579.47	1188
579.522	1183
579.574	1176
579.626	1164
579.678	1191
579.73	1155
579.782	1212
579.835	1199
579.887	1176
579.939	1184
579.991	1182
580.043	1159
580.095	1143
580.148	1190
580.2	1179
580.252	1204
580.304	1178
580.356	1164
580.408	1161
580.46	1179
580.513	1181
580.565	1172
580.617	1149
580.669	1172
580.721	1204
580.773	1159
580.826	1185
580.878	1151
580.93	1198
580.982	1174
581.034	1159
581.086	1181
581.138	1172
581.191	1174
581.243	1193
581.295	1220
581.347	1196
581.399	1191
581.451	1188
581.503	1185
581.556	1212
581.608	1221
581.66	1202
581.712	1247
581.764	1228
581.816	1217
581.868	1202
581.92	1205
581.973	1225
582.025	1232
582.077	1231
582.129	1217
582.181	1254
582.233	1236
582.285	1242
582.338	1236
582.39	1224
582.442	1235
582.494	1225
582.546	1274
582.598	1237
582.65	1259
582.703	1236
582.755	1269
582.807	1279
582.859	1294
582.911	1249
582.963	1245
583.015	1320
583.067	1268
583.12	1268
583.172	1284
583.224	1278
583.276	1301
583.328	1277
583.38	1274
583.432	1314
583.484	1318
583.537	1272
583.589	1323
583.641	1338
583.693	1348
583.745	1311
583.797	1319
583.849	1337
583.901	1320
583.953	1330
584.006	1317
584.058	1359
584.11	1359
584.162	1348
584.214	1375
584.266	1361
584.318	1393
584.37	1364
584.423	1374
584.475	1385
584.527	1384
584.579	1396
584.631	1428
584.683	1428
584.735	1413
584.787	1426
584.839	1429
584.892	1432
584.944	1432
584.996	1447
585.048	1435
585.1	1450
585.152	1459
585.204	1465
585.256	1461
585.308	1483
585.361	1495
585.413	1486
585.465	1500
585.517	1480
585.569	1491
585.621	1499
585.673	1536
585.725	1493
585.777	1527
585.83	1497
585.882	1529
585.934	1534
585.986	1532
586.038	1554
586.09	1532
586.142	1549
586.194	1552
586.246	1560
586.298	1565
586.351	1563
586.403	1539
586.455	1603
586.507	1575
586.559	1610
586.611	1590
586.663	1564
586.715	1582
586.767	1583
586.819	1619
586.872	1614
586.924	1615
586.976	1571
587.028	1585
587.08	1636
587.132	1585
587.184	1614
587.236	1630
587.288	1613
587.34	1650
587.392	1637
587.445	1619
587.497	1604
587.549	1658
587.601	1653
587.653	1701
587.705	1668
587.757	1636
587.809	1671
587.861	1679
587.913	1702
587.965	1686
588.018	1649
588.07	1672
588.122	1704
588.174	1703
588.226	1714
588.278	1727
588.33	1684
588.382	1668
588.434	1689
588.486	1704
588.538	1688
588.59	1690
588.642	1649
588.695	1693
588.747	1712
588.799	1693
588.851	1683
588.903	1684
588.955	1704
589.007	1686
589.059	1717
589.111	1710
589.163	1708
589.215	1717
589.267	1758
589.319	1723
589.372	1727
589.424	1770
589.476	1699
589.528	1733
589.58	1721
589.632	1731
589.684	1760
589.736	1730
589.788	1734
589.84	1734
589.892	1720
589.944	1708
589.996	1707
590.048	1725
590.101	1711
590.153	1696
590.205	1737
590.257	1790
590.309	1705
590.361	1709
590.413	1713
590.465	1742
590.517	1709
590.569	1721
590.621	1707
590.673	1688
590.725	1749
590.777	1708
590.829	1727
590.881	1683
590.933	1695
590.986	1727
591.038	1712
591.09	1681
591.142	1721
591.194	1692
591.246	1710
591.298	1693
591.35	1732
591.402	1703
591.454	1679
591.506	1682
591.558	1679
591.61	1687
591.662	1665
591.714	1653
591.766	1648
591.818	1666
591.87	1681
591.923	1670
591.975	1655
592.027	1687
592.079	1681
592.131	1662
592.183	1653
592.235	1669
592.287	1672
592.339	1655
592.391	1649
592.443	1643
592.495	1644
592.547	1672
592.599	1666
592.651	1689
592.703	1640
592.755	1659
592.807	1641
592.859	1668
592.911	1630
592.963	1654
593.015	1633
593.068	1657
593.12	1665
593.172	1623
593.224	1682
593.276	1648
593.328	1640
593.38	1664
593.432	1646
593.484	1687
593.536	1670
593.588	1638
593.64	1624
593.692	1706
593.744	1686
593.796	1640
593.848	1659
593.9	1652
593.952	1656
594.004	1658
594.056	1678
594.108	1681
594.16	1690
594.212	1643
594.264	1669
594.316	1682
594.368	1652
594.42	1661
594.472	1705
594.524	1710
594.576	1646
594.628	1676
594.68	1681
594.732	1667
594.784	1702
594.837	1697
594.889	1698
594.941	1691
594.993	1687
595.045	1688
595.097	1702
595.149	1748
595.201	1669
595.253	1697
595.305	1699
595.357	1709
595.409	1716
595.461	1735
595.513	1663
595.565	1711
595.617	1718
595.669	1724
595.721	1768
595.773	1731
595.825	1780
595.877	1724
595.929	1786
595.981	1746
596.033	1764
596.085	1762
596.137	1745
596.189	1758
596.241	1792
596.293	1761
596.345	1791
596.397	1784
596.449	1818
596.501	1796
596.553	1782
596.605	1787
596.657	1813
596.709	1837
596.761	1816
596.813	1871
596.865	1848
596.917	1856
596.969	1865
597.021	1833
597.073	1836
597.125	1803
597.177	1855
597.229	1809
597.281	1845
597.333	1822
597.385	1846
597.437	1832
597.489	1871
597.541	1832
597.593	1819
597.645	1878
597.697	1844
597.749	1840
597.801	1876
597.853	1865
597.905	1826
597.957	1837
598.009	1867
598.061	1868
598.113	1864
598.165	1884
598.217	1859
598.269	1884
598.321	1854
598.373	1845
598.425	1864
598.477	1870
598.529	1852
598.581	1864
598.633	1882
598.685	1888
598.737	1870
598.789	1895
598.841	1906
598.893	1884
598.945	1893
598.997	1916
599.049	1875
599.101	1849
599.153	1908
599.205	1875
599.257	1858
599.309	1895
599.361	1922
599.413	1892
599.465	1923
599.517	1879
599.569	1926
599.62	1878
599.672	1854
599.724	1897
599.776	1901
599.828	1899
599.88	1897
599.932	1909
599.984	1898
600.036	1904
600.088	1914
600.14	1933
600.192	1900
600.244	1910
600.296	1912
600.348	1884
600.4	1887
600.452	1911
600.504	1874
600.556	1903
600.608	1920
600.66	1909
600.712	1893
600.764	1887
600.816	1908
600.868	1919
600.92	1930
600.972	1889
601.024	1911
601.076	1914
601.128	1908
601.18	1901
601.232	1905
601.284	1906
601.335	1913
601.387	1923
601.439	1929
601.491	1940
601.543	1896
601.595	1897
601.647	1914
601.699	1914
601.751	1908
601.803	1958
601.855	1935
601.907	1936
601.959	1917
602.011	1912
602.063	1922
602.115	1959
602.167	1920
602.219	1909
602.271	1919
602.323	1929
602.375	1947
602.427	1949
602.478	1923
602.53	1898
602.582	1936
602.634	1937
602.686	1938
602.738	1962
602.79	1939
602.842	1947
602.894	1953
602.946	1915
602.998	1947
603.05	1950
603.102	1987
603.154	1933
603.206	1961
603.258	1983
603.31	1935
603.362	1956
603.413	1990
603.465	1969
603.517	1973
603.569	1979
603.621	1992
603.673	2016
603.725	1951
603.777	1998
603.829	1999
603.881	2012
603.933	1962
603.985	2047
604.037	1964
604.089	1956
604.141	1979
604.193	2015
604.244	1989
604.296	1992
604.348	2004
604.4	2015
604.452	1975
604.504	2026
604.556	1987
604.608	1997
604.66	2010
604.712	2010
604.764	1986
604.816	1961
604.868	1958
604.92	1990
604.971	1998
605.023	2012
605.075	2021
605.127	2001
605.179	1983
605.231	2012
605.283	2004
605.335	1981
605.387	2038
605.439	2020
605.491	2028
605.543	2033
605.594	2027
605.646	2000
605.698	2019
605.75	2007
605.802	1990
605.854	1974
605.906	1996
605.958	1986
606.01	2007
606.062	1984
606.114	2024
606.166	1997
606.217	2007
606.269	2035
606.321	1979
606.373	1979
606.425	1969
606.477	1977
606.529	2018
606.581	2047
606.633	1981
606.685	2025
606.737	1989
606.789	2016
606.84	2023
606.892	1997
606.944	2000
606.996	2004
607.048	1998
607.1	2033
607.152	1974
607.204	2027
607.256	2004
607.308	2008
607.359	1999
607.411	2022
607.463	2010
607.515	2024
607.567	2010
607.619	2018
607.671	2012
607.723	2054
607.775	2051
607.827	2038
607.878	2039
607.93	2056
607.982	2012
608.034	2041
608.086	2028
608.138	2024
608.19	2000
608.242	2024
608.294	2030
608.345	2009
608.397	2089
608.449	2033
608.501	2046
608.553	2049
608.605	2046
608.657	2056
608.709	2039
608.761	2061
608.812	2027
608.864	2085
608.916	2100
608.968	2077
609.02	2083
609.072	2048
609.124	2058
609.176	2056
609.228	2065
609.279	2102
609.331	2098
609.383	2105
609.435	2061
609.487	2125
609.539	2090
609.591	2120
609.643	2054
609.694	2114
609.746	2114
609.798	2115
609.85	2112
609.902	2130
609.954	2142
610.006	2076
610.058	2111
610.109	2159
610.161	2171
610.213	2146
610.265	2114
610.317	2146
610.369	2117
610.421	2125
610.473	2109
610.524	2124
610.576	2146
610.628	2151
610.68	2170
610.732	2168
610.784	2161
610.836	2158
610.887	2144
610.939	2164
610.991	2187
611.043	2188
611.095	2150
611.147	2160
611.199	2165
611.25	2184
611.302	2156
611.354	2192
611.406	2162
611.458	2195
611.51	2157
611.562	2176
611.614	2154
611.665	2177
611.717	2187
611.769	2219
611.821	2176
611.873	2163
611.925	2173
611.977	2201
612.028	2237
612.08	2239
612.132	2210
612.184	2250
612.236	2225
612.288	2205
612.339	2176
612.391	2216
612.443	2239
612.495	2239
612.547	2216
612.599	2195
612.651	2221
612.702	2243
612.754	2242
612.806	2227
612.858	2215
612.91	2215
612.962	2268
613.013	2272
613.065	2288
613.117	2282
613.169	2287
613.221	2270
613.273	2293
613.325	2285
613.376	2255
613.428	2271
613.48	2268
613.532	2292
613.584	2286
613.635	2322
613.687	2311
613.739	2325
613.791	2323
613.843	2330
613.895	2315
613.947	2325
613.998	2330
614.05	2346
614.102	2368
614.154	2368
614.206	2355
614.258	2351
614.309	2367
614.361	2347
614.413	2320
614.465	2356
614.517	2397
614.568	2367
614.62	2359
614.672	2380
614.724	2392
614.776	2383
614.828	2338
614.879	2380
614.931	2363
614.983	2373
615.035	2378
615.087	2356
615.139	2408
615.19	2416
615.242	2423
615.294	2439
615.346	2435
615.398	2440
615.449	2410
615.501	2412
615.553	2378
615.605	2454
615.657	2421
615.709	2420
615.76	2420
615.812	2453
615.864	2455
615.916	2482
615.968	2493
616.019	2447.74
616.071	2397.72
616.123	2445.7
616.175	2458.6
616.227	2450.42
616.278	2438
616.33	2480.09
616.382	2525
616.434	2456.65
616.486	2471.51
616.537	2490.95
616.589	2446.12
616.641	2482.33
616.693	2477.32
616.745	2507.15
616.797	2508.29
616.848	2503.47
616.9	2536.84
616.952	2529.26
617.004	2476.34
617.056	2505.86
617.107	2497.03
617.159	2503.63
617.211	2543.03
617.263	2503.68
617.315	2518.15
617.366	2511.73
617.418	2548.38
617.47	2532.21
617.522	2547.88
617.573	2511.06
617.625	2544.51
617.677	2516.08
617.729	2508.66
617.781	2538.71
617.832	2523.75
617.884	2591.72
617.936	2555.61
617.988	2561.81
618.04	2542.77
618.091	2554.51
618.143	2545.79
618.195	2555.61
618.247	2562.21
618.299	2553.54
618.35	2570.24
618.402	2561.84
618.454	2565.05
618.506	2578.11
618.557	2610.21
618.609	2607.6
618.661	2610.15
618.713	2604.28
618.765	2582.64
618.816	2599.76
618.868	2566.13
618.92	2597.45
618.972	2597.05
619.023	2609.84
619.075	2624.7
619.127	2617.35
619.179	2629.05
619.231	2613.22
619.282	2611.31
619.334	2632.53
619.386	2641.93
619.438	2636.3
619.49	2617.72
619.541	2624.98
619.593	2638.71
619.645	2625.88
619.697	2618.27
619.748	2627.13
619.8	2624.44
619.852	2606.51
619.904	2625.83
619.955	2647.49
620.007	2666.51
620.059	2664.32
620.111	2632.75
620.162	2653.97
620.214	2646.21
620.266	2646.45
620.318	2666.58
620.37	2682.39
620.421	2648.74
620.473	2665.9
620.525	2655.96
620.577	2688.59
620.628	2672.69
620.68	2667.48
620.732	2669.44
620.784	2671.43
620.835	2671.53
620.887	2660.07
620.939	2669.65
620.991	2668.92
621.042	2674.61
621.094	2676.55
621.146	2686.11
621.198	2676.8
621.249	2666.5
621.269	2667
621.321	2700
621.373	2629
621.425	2646
621.477	2683
621.529	2708
621.581	2698
621.633	2685
621.685	2701
621.737	2700
621.789	2707
621.841	2666
621.893	2740
621.945	2698
621.997	2733
622.049	2723
622.101	2665
622.153	2706
622.205	2693
622.257	2687
622.309	2699
622.361	2706
622.413	2738
622.465	2677
622.517	2674
622.569	2684
622.621	2671
622.673	2687
622.725	2709
622.776	2702
622.828	2728
622.88	2727
622.932	2719
622.984	2790
623.036	2734
623.088	2742
623.14	2738
623.192	2733
623.244	2748
623.296	2683
623.348	2739
623.4	2756
623.452	2742
623.504	2776
623.556	2729
623.608	2719
623.66	2778
623.712	2744
623.764	2750
623.816	2705
623.868	2776
623.92	2722
623.972	2787
624.024	2784
624.076	2734
624.128	2745
624.18	2769
624.232	2792
624.284	2754
624.336	2764
624.388	2783
624.44	2688
624.492	2758
624.544	2754
624.596	2723
624.648	2778
624.699	2783
624.751	2763
624.803	2817
624.855	2795
624.907	2796
624.959	2787
625.011	2790
625.063	2812
625.115	2827
625.167	2780
625.219	2749
625.271	2819
625.323	2818
625.375	2755
625.427	2824
625.479	2824
625.531	2804
625.583	2820
625.635	2791
625.687	2790
625.739	2819
625.791	2819
625.843	2876
625.895	2828
625.946	2849
625.998	2807
626.05	2845
626.102	2816
626.154	2863
626.206	2838
626.258	2823
626.31	2873
626.362	2875
626.414	2866
626.466	2877
626.518	2852
626.57	2858
626.622	2894
626.674	2910
626.726	2884
626.778	2918
626.83	2905
626.882	2877
626.934	2910
626.985	2920
627.037	2918
627.089	2877
627.141	2908
627.193	2908
627.245	2924
627.297	2880
627.349	2931
627.401	2889
627.453	2936
627.505	2905
627.557	2873
627.609	2932
627.661	2929
627.713	2916
627.765	2900
627.817	2944
627.868	2941
627.92	2916
627.972	2943
628.024	2935
628.076	2935
628.128	2997
628.18	2945
628.232	2957
628.284	2971
628.336	2948
628.388	2951
628.44	2940
628.492	2958
628.544	2996
628.596	3029
628.647	2989
628.699	2991
628.751	2972
628.803	3002
628.855	2979
628.907	3002
628.959	3053
629.011	3053
629.063	3055
629.115	2997
629.167	2991
629.219	3044
629.271	3000
629.322	2973
629.374	2975
629.426	3026
629.478	3079
629.53	2970
629.582	3010
629.634	3033
629.686	2997
629.738	3022
629.79	3048
629.842	3026
629.894	3100
629.945	3029
629.997	3065
630.049	3072
630.101	3079
630.153	3086
630.205	3102
630.257	3073
630.309	3103
630.361	3061
630.413	3110
630.465	3060
630.517	3139
630.568	3101
630.62	3101
630.672	3168
630.724	3169
630.776	3100
630.828	3109
630.88	3112
630.932	3108
630.984	3199
631.036	3166
631.088	3128
631.14	3110
631.191	3124
631.243	3113
631.295	3197
631.347	3183
631.399	3173
631.451	3177
631.503	3202
631.555	3200
631.607	3188
631.659	3174
631.71	3196
631.762	3243
631.814	3185
631.866	3220
631.918	3235
631.97	3171
632.022	3241
632.074	3258
632.126	3247
632.178	3306
632.229	3234
632.281	3268
632.333	3270
632.385	3277
632.437	3287
632.489	3268
632.541	3281
632.593	3308
632.645	3286
632.696	3298
632.748	3233
632.8	3289
632.852	3316
632.904	3330
632.956	3275
633.008	3347
633.06	3315
633.112	3335
633.164	3347
633.215	3377
633.267	3395
633.319	3416
633.371	3382
633.423	3372
633.475	3376
633.527	3407
633.579	3350
633.63	3405
633.682	3412
633.734	3379
633.786	3430
633.838	3347
633.89	3403
633.942	3480
633.994	3424
634.046	3444
634.097	3475
634.149	3410
634.201	3433
634.253	3450
634.305	3440
634.357	3472
634.409	3525
634.461	3468
634.512	3463
634.564	3465
634.616	3474
634.668	3553
634.72	3530
634.772	3497
634.824	3553
634.876	3540
634.927	3534
634.979	3524
635.031	3545
635.083	3542
635.135	3585
635.187	3561
635.239	3608
635.291	3609
635.342	3578
635.394	3654
635.446	3620
635.498	3678
635.55	3647
635.602	3690
635.654	3737
635.705	3723
635.757	3692
635.809	3727
635.861	3792
635.913	3781
635.965	3760
636.017	3821
636.068	3760
636.12	3817
636.172	3836
636.224	3929
636.276	3921
636.328	3944
636.38	3906
636.431	3963
636.483	3993
636.535	4010
636.587	3995
636.639	4024
636.691	4054
636.743	4127
636.794	4176
636.846	4189
636.898	4213
636.95	4247
637.002	4255
637.054	4319
637.106	4383
637.157	4382
637.209	4455
637.261	4528
637.313	4531
637.365	4589
637.417	4623
637.469	4706
637.52	4737
637.572	4745
637.624	4832
637.676	4861
637.728	4919
637.78	4994
637.831	5006
637.883	5013
637.935	5101
637.987	5129
638.039	5189
638.091	5122
638.143	5235
638.194	5310
638.246	5307
638.298	5327
638.35	5334
638.402	5325
638.454	5371
638.505	5315
638.557	5309
638.609	5226
638.661	5278
638.713	5298
638.765	5295
638.816	5283
638.868	5224
638.92	5208
638.972	5158
639.024	5188
639.076	5144
639.127	5095
639.179	5084
639.231	5039
639.283	5057
639.335	4901
639.387	4909
639.438	4913
639.49	4890
639.542	4848
639.594	4853
639.646	4795
639.698	4771
639.749	4832
639.801	4699
639.853	4727
639.905	4702
639.957	4678
640.008	4649
640.06	4563
640.112	4612
640.164	4526
640.216	4559
640.268	4595
640.319	4424
640.371	4529
640.423	4492
640.475	4487
640.527	4506
640.578	4431
640.63	4437
640.682	4497
640.734	4482
640.786	4435
640.838	4437
640.889	4414
640.941	4411
640.993	4425
641.045	4357
641.097	4365
641.148	4428
641.2	4355
641.252	4330
641.304	4355
641.356	4350
641.408	4333
641.459	4388
641.511	4279
641.563	4348
641.615	4343
641.667	4386
641.718	4342
641.77	4348
641.822	4304
641.874	4290
641.926	4309
641.977	4312
642.029	4294
642.081	4343
642.133	4307
642.185	4328
642.236	4315
642.288	4261
642.34	4280
642.392	4292
642.444	4299
642.495	4326
642.547	4334
642.599	4331
642.651	4304
642.703	4339
642.754	4313
642.806	4321
642.858	4294
642.91	4329
642.962	4302
643.013	4369
643.065	4292
643.117	4355
643.169	4291
643.221	4218
643.272	4302
643.324	4290
643.376	4394
643.428	4254
643.479	4340
643.531	4295
643.583	4326
643.635	4308
643.687	4417
643.738	4333
643.79	4360
643.842	4356
643.894	4316
643.946	4320
643.997	4385
644.049	4358
644.101	4330
644.153	4356
644.205	4388
644.256	4311
644.308	4343
644.36	4352
644.412	4371
644.463	4376
644.515	4325
644.567	4413
644.619	4431
644.671	4470
644.722	4395
644.774	4398
644.826	4394
644.878	4407
644.929	4359
644.981	4392
645.033	4412
645.085	4470
645.136	4403
645.188	4404
645.24	4419
645.292	4430
645.344	4424
645.395	4427
645.447	4485
645.499	4443
645.551	4466
645.602	4489
645.654	4474
645.706	4419
645.758	4488
645.81	4423
645.861	4453
645.913	4503
645.965	4471
646.017	4472
646.068	4538
646.12	4474
646.172	4469
646.224	4488
646.275	4449
646.327	4495
646.379	4466
646.431	4537
646.482	4508
646.534	4471
646.586	4552
646.638	4525
646.689	4506
646.741	4473
646.793	4530
646.845	4536
646.896	4508
646.948	4526
647	4602
647.052	4556
647.104	4554
647.155	4575
647.207	4510
647.259	4571
647.31	4532
647.362	4541
647.414	4564
647.466	4583
647.518	4549
647.569	4599
647.621	4605
647.673	4635
647.724	4573
647.776	4554
647.828	4635
647.88	4626
647.931	4630
647.983	4602
648.035	4594
648.087	4591
648.138	4608
648.19	4639
648.242	4652
648.294	4663
648.345	4644
648.397	4628
648.449	4678
648.501	4580
648.552	4612
648.604	4675
648.656	4656
648.708	4712
648.759	4669
648.811	4651
648.863	4714
648.915	4679
648.966	4735
649.018	4730
649.07	4724
649.121	4691
649.173	4703
649.225	4723
649.277	4761
649.328	4767
649.38	4759
649.432	4737
649.484	4818
649.535	4737
649.587	4805
649.639	4765
649.69	4778
649.742	4830
649.794	4761
649.846	4758
649.897	4765
649.949	4852
650.001	4813
650.053	4874
650.104	4862
650.156	4907
650.208	4854
650.259	4883
650.311	4821
650.363	4916
650.415	4845
650.466	4915
650.518	4813
650.57	4865
650.621	4899
650.673	4950
650.725	4899
650.777	4917
650.828	4925
650.88	4842
650.932	4921
650.984	4971
651.035	4948
651.087	4971
651.139	5003
651.19	4976
651.242	4950
651.294	4967
651.345	5027
651.397	5000
651.449	5019
651.501	4971
651.552	5048
651.604	5082
651.656	4984
651.707	5028
651.759	5001
651.811	5055
651.863	5063
651.914	5082
651.966	5045
652.018	5082
652.069	5124
652.121	5073
652.173	5078
652.224	5146
652.276	5107
652.328	5115
652.38	5063
652.431	5173
652.483	5107
652.535	5116
652.586	5069
652.638	5104
652.69	5114
652.741	5126
652.793	5182
652.845	5197
652.897	5222
652.948	5146
653	5200
653.052	5210
653.103	5237
653.155	5141
653.207	5225
653.258	5190
653.31	5224
653.362	5213
653.413	5186
653.465	5250
653.517	5253
653.568	5305
653.62	5230
653.672	5284
653.724	5244
653.775	5325
653.827	5293
653.879	5301
653.93	5325
653.982	5284
654.034	5312
654.085	5364
654.137	5400
654.189	5357
654.24	5402
654.292	5437
654.344	5362
654.395	5409
654.447	5443
654.499	5366
654.55	5444
654.602	5434
654.654	5436
654.705	5471
654.757	5472
654.809	5461
654.86	5453
654.912	5452
654.964	5546
655.016	5542
655.067	5480
655.119	5540
655.17	5567
655.222	5617
655.274	5574
655.326	5608
655.377	5607
655.429	5638
655.481	5526
655.532	5642
655.584	5648
655.635	5738
655.687	5716
655.739	5686
655.79	5698
655.842	5690
655.894	5686
655.945	5747
655.997	5783
656.049	5733
656.1	5724
656.152	5737
656.204	5770
656.255	5784
656.307	5773
656.359	5884
656.41	5822
656.462	5862
656.514	5891
656.565	5881
656.617	5844
656.669	5954
656.72	5868
656.772	5909
656.824	5891
656.875	5927
656.927	5951
656.979	5957
657.03	5943
657.082	5972
657.134	5972
657.185	5983
657.237	6045
657.288	6051
657.34	6035
657.392	6053
657.443	6091
657.495	6037
657.547	6139
657.598	6173
657.65	6136
657.702	6220
657.753	6045
657.805	6108
657.857	6063
657.908	6066
657.96	6120
658.011	6145
658.063	6137
658.115	6182
658.166	6221
658.218	6177
658.27	6206
658.321	6195
658.373	6315
658.425	6262
658.476	6246
658.528	6215
658.579	6268
658.631	6329
658.683	6349
658.734	6221
658.786	6310
658.838	6284
658.889	6269
658.941	6255
658.992	6274
659.044	6402
659.096	6281
659.147	6305
659.199	6337
659.251	6246
659.302	6378
659.354	6283
659.406	6318
659.457	6381
659.509	6347
659.56	6332
659.612	6374
659.664	6338
659.715	6400
659.767	6319
659.818	6298
659.87	6431
659.922	6413
659.973	6316
660.025	6355
660.077	6332
660.128	6370
660.18	6382
660.231	6371
660.283	6348
660.335	6449
660.386	6453
660.438	6392
660.49	6348
660.541	6403
660.593	6352
660.644	6352
660.696	6338
660.748	6391
660.799	6341
660.851	6409
660.902	6364
660.954	6435
661.006	6331
661.057	6380
661.109	6387
661.16	6390
661.212	6373
661.264	6475
661.315	6403
661.367	6397
661.418	6419
661.47	6408
661.522	6409
661.573	6392
661.625	6334
661.676	6416
661.728	6396
661.78	6416
661.831	6457
661.883	6359
661.934	6477
661.986	6391
662.038	6428
662.089	6415
662.141	6419
662.192	6389
662.244	6406
662.296	6365
662.347	6358
662.399	6366
662.45	6405
662.502	6442
662.554	6383
662.605	6347
662.657	6403
662.708	6415
662.76	6344
662.811	6301
662.863	6426
662.915	6420
662.966	6415
663.018	6413
663.069	6362
663.121	6350
663.173	6459
663.224	6402
663.276	6432
663.327	6413
663.379	6491
663.43	6436
663.482	6354
663.534	6504
663.585	6437
663.637	6429
663.688	6388
663.74	6404.79
663.792	6486.05
663.843	6442.43
663.895	6424.33
663.946	6459.19
663.998	6454.04
664.049	6451.45
664.101	6462.23
664.153	6442.71
664.204	6450.75
664.256	6356.6
664.307	6438.27
664.359	6460.8
664.41	6408.93
664.462	6411.4
664.513	6436.04
664.565	6452.92
664.617	6424.49
664.668	6452.04
664.72	6428.74
664.771	6404.91
664.823	6375.41
664.874	6398
664.926	6449.87
664.978	6484.24
665.029	6465.59
665.081	6427.92
665.132	6450.27
665.184	6456.54
665.235	6430.27
665.287	6486.62
665.339	6452.86
665.39	6444.64
665.442	6416.79
665.493	6430.2
665.545	6433.92
665.596	6499.72
665.648	6419.14
665.699	6449.35
665.751	6399.36
665.802	6411.09
665.854	6472.9
665.906	6487.58
665.957	6433.16
666.009	6408.08
666.06	6397.56
666.112	6458.76
666.163	6446.12
666.215	6423.2
666.266	6472.56
666.318	6426.8
666.37	6420.03
666.421	6436.49
666.473	6414.63
666.524	6444.06
666.576	6472.61
666.627	6410.87
666.679	6402.91
666.73	6373.1
666.782	6384.38
666.833	6418.23
666.885	6433.79
666.937	6445.94
666.988	6408.24
667.04	6428.38
667.091	6412.11
667.143	6402.37
667.194	6432.01
667.246	6386.97
667.297	6394.41
667.349	6423.4
667.4	6426.29
667.452	6426.21
667.503	6417.84
667.555	6441.08
667.607	6410.42
667.658	6395.8
667.71	6441.38
667.761	6429.51
667.813	6405.86
667.864	6403.7
667.916	6428.32
667.967	6473.09
668.019	6466.66
668.07	6453.11
668.122	6451.1
668.173	6430.2
668.225	6468.92
668.276	6476.46
668.328	6457.85
668.379	6477.51
668.431	6465.47
668.482	6454.78
668.534	6454.37
668.586	6449.45
668.637	6474.52
668.689	6404.86
668.74	6409.89
668.792	6433.16
668.843	6436.68
668.895	6423.37
668.935	6459
668.987	6464
669.038	6401
669.09	6471
669.142	6523
669.194	6418
669.245	6496
669.297	6411
669.349	6442
669.401	6426
669.453	6469
669.504	6468
669.556	6494
669.608	6456
669.66	6445
669.711	6393
669.763	6504
669.815	6397
669.867	6355
669.918	6455
669.97	6411
670.022	6429
670.074	6308
670.125	6465
670.177	6391
670.229	6374
670.281	6398
670.332	6442
670.384	6392
670.436	6412
670.488	6413
670.539	6461
670.591	6397
670.643	6412
670.695	6438
670.747	6441
670.798	6480
670.85	6478
670.902	6501
670.953	6464
671.005	6395
671.057	6436
671.109	6373
671.161	6401
671.212	6468
671.264	6420
671.316	6439
671.367	6483
671.419	6443
671.471	6463
671.523	6435
671.575	6464
671.626	6482
671.678	6416
671.73	6460
671.781	6402
671.833	6500
671.885	6397
671.937	6466
671.988	6521
672.04	6471
672.092	6490
672.144	6432
672.195	6469
672.247	6498
672.299	6490
672.351	6482
672.402	6511
672.454	6469
672.506	6527
672.558	6551
672.609	6523
672.661	6450
672.713	6462
672.765	6429
672.816	6526
672.868	6500
672.92	6429
672.971	6550
673.023	6566
673.075	6528
673.127	6485
673.178	6577
673.23	6523
673.282	6519
673.334	6603
673.385	6560
673.437	6539
673.489	6618
673.54	6583
673.592	6543
673.644	6590
673.696	6569
673.747	6610
673.799	6591
673.851	6646
673.903	6610
673.954	6590
674.006	6607
674.058	6692
674.109	6646
674.161	6667
674.213	6648
674.265	6556
674.316	6657
674.368	6711
674.42	6722
674.471	6643
674.523	6709
674.575	6746
674.627	6641
674.678	6635
674.73	6685
674.782	6817
674.833	6751
674.885	6730
674.937	6709
674.989	6702
675.04	6706
675.092	6778
675.144	6752
675.195	6695
675.247	6763
675.299	6831
675.351	6767
675.402	6755
675.454	6698
675.506	6808
675.557	6828
675.609	6785
675.661	6824
675.713	6880
675.764	6883
675.816	6751
675.868	6803
675.919	6825
675.971	6815
676.023	6793
676.074	6890
676.126	6809
676.178	6851
676.23	6874
676.281	6881
676.333	6857
676.385	6854
676.436	6799
676.488	6832
676.54	6886
676.591	6821
676.643	6893
676.695	6867
676.747	6960
676.798	6889
676.85	6918
676.902	6844
676.953	6915
677.005	6883
677.057	6824
677.108	6899
677.16	6860
677.212	6906
677.263	6906
677.315	6904
677.367	6905
677.419	6865
677.47	6922
677.522	6932
677.574	6860
677.625	6881
677.677	6864
677.729	6861
677.78	6940
677.832	6910
677.884	6922
677.935	6916
677.987	6834
678.039	6892
678.091	6880
678.142	6905
678.194	6908
678.246	6805
678.297	6879
678.349	6895
678.401	6871
678.452	6906
678.504	6891
678.556	6884
678.607	6906
678.659	6870
678.711	6901
678.762	6886
678.814	6904
678.866	6843
678.917	6872
678.969	6874
679.021	6867
679.072	6954
679.124	6911
679.176	6910
679.227	6932
679.279	6964
679.331	6975
679.382	6884
679.434	6852
679.486	6885
679.537	6956
679.589	6957
679.641	6918
679.692	6916
679.744	6967
679.796	6943
679.847	6943
679.899	6835
679.951	6953
680.003	6973
680.054	6843
680.106	6996
680.157	6954
680.209	7011
680.261	7013
680.312	6940
680.364	6952
680.416	6937
680.467	6993
680.519	6951
680.571	6984
680.622	6971
680.674	6994
680.726	7037
680.777	7018
680.829	6959
680.881	6993
680.932	7034
680.984	7022
681.036	7067
681.087	7071
681.139	7096
681.191	7057
681.242	7008
681.294	7109
681.346	7056
681.397	7083
681.449	7093
681.501	7013
681.552	7081
681.604	7045
681.656	7036
681.707	7078
681.759	7111
681.81	7144
681.862	7081
681.914	7157
681.965	7204
682.017	7143
682.069	7060
682.12	7114
682.172	7069
682.224	7063
682.275	7220
682.327	7168
682.379	7131
682.43	7111
682.482	7149
682.533	7155
682.585	7166
682.637	7125
682.688	7134
682.74	7159
682.792	7145
682.843	7079
682.895	7134
682.947	7158
682.998	7082
683.05	7209
683.102	7160
683.153	7164
683.205	7151
683.256	7143
683.308	7147
683.36	7221
683.411	7140
683.463	7134
683.515	7126
683.566	7213
683.618	7150
683.669	7159
683.721	7117
683.773	7136
683.824	7125
683.876	7162
683.928	7142
683.979	7200
684.031	7146
684.082	7124
684.134	7134
684.186	7149
684.237	7132
684.289	7073
684.341	7131
684.392	7141
684.444	7133
684.495	7081
684.547	7009
684.599	7078
684.65	7172
684.702	7168
684.754	7086
684.805	7162
684.857	7136
684.908	7063
684.96	7165
685.012	7020
685.063	7088
685.115	7075
685.166	7081
685.218	7077
685.27	7097
685.321	7146
685.373	7128
685.424	7087
685.476	7060
685.528	7072
685.579	7105
685.631	7107
685.683	6997
685.734	7030
685.786	7095
685.837	6999
685.889	7112
685.941	7065
685.992	7074
686.044	7097
686.095	7047
686.147	6994
686.199	7035
686.25	6982
686.302	7010
686.353	6973
686.405	7054
686.457	7056
686.508	6947
686.56	6975
686.611	7101
686.663	7085
686.715	7004
686.766	7018
686.818	7034
686.869	6935
686.921	6993
686.973	6990
687.024	7003
687.076	7064
687.127	7022
687.179	7022
687.231	6967
687.282	7044
687.334	7032
687.385	7061
687.437	7015
687.489	6940
687.54	7002
687.592	6989
687.643	6982
687.695	7037
687.747	6989
687.798	6951
687.85	6956
687.901	6998
687.953	7012
688.004	7005
688.056	6991
688.108	7046
688.159	7010
688.211	7021
688.262	6926
688.314	7031
688.366	6963
688.417	6979
688.469	6884
688.52	6995
688.572	6995
688.623	6972
688.675	7004
688.727	7020
688.778	6961
688.83	7011
688.881	6995
688.933	6919
688.984	7056
689.036	6995
689.088	6978
689.139	6963
689.191	6998
689.242	6885
689.294	6991
689.346	6979
689.397	6955
689.449	6937
689.5	6970
689.552	6900
689.603	6957
689.655	7017
689.706	6951
689.758	6930
689.81	6886
689.861	6862
689.913	6924
689.964	6948
690.016	6927
690.067	6939
690.119	6897
690.171	6922
690.222	6931
690.274	6901
690.325	6951
690.377	6940
690.428	6937
690.48	6802
690.531	6868
690.583	6955
690.635	6894
690.686	6822
690.738	6856
690.789	6803
690.841	6890
690.892	6887
690.944	6782
690.996	6845
691.047	6860
691.099	6795
691.15	6899
691.202	6887
691.253	6863
691.305	6912
691.356	6871
691.408	6903
691.459	6793
691.511	6744
691.563	6827
691.614	6852
691.666	6829
691.717	6815
691.769	6777
691.82	6875
691.872	6755
691.923	6816
691.975	6764
692.026	6764
692.078	6771
692.13	6826
692.181	6732
692.233	6765
692.284	6794
692.336	6751
692.387	6764
692.439	6754
692.49	6796
692.542	6767
692.593	6743
692.645	6692
692.697	6751
692.748	6740
692.8	6671
692.851	6808
692.903	6701
692.954	6726
693.006	6716
693.057	6813
693.109	6709
693.16	6642
693.212	6675
693.263	6694
693.315	6780
693.366	6749
693.418	6641
693.47	6748
693.521	6731
693.573	6698
693.624	6747
693.676	6663
693.727	6770
693.779	6682
693.83	6673
693.882	6645
693.933	6696
693.985	6670
694.036	6699
694.088	6662
694.139	6722
694.191	6660
694.242	6608
694.294	6653
694.345	6664
694.397	6656
694.448	6578
694.5	6673
694.552	6639
694.603	6597
694.655	6678
694.706	6662
694.758	6657
694.809	6676
694.861	6609
694.912	6633
694.964	6631
695.015	6652
695.067	6615
695.118	6598
695.17	6613
695.221	6612
695.273	6566
695.324	6611
695.376	6558
695.427	6554
695.479	6600
695.53	6598
695.582	6576
695.633	6582
695.685	6643
695.736	6555
695.788	6616
695.839	6619
695.891	6579
695.942	6568
695.994	6656
696.045	6528
696.097	6576
696.148	6585
696.2	6566
696.251	6594
696.303	6536
696.354	6578
696.406	6550
696.457	6633
696.509	6549
696.56	6591
696.612	6552
696.663	6543
696.715	6553
696.766	6549
696.818	6522
696.869	6587
696.921	6560
696.972	6510
697.024	6465
697.075	6517
697.127	6544
697.178	6495
697.23	6506
697.281	6474
697.333	6455
697.384	6547
697.436	6494
697.487	6478
697.539	6465
697.59	6464
697.642	6376
697.693	6445
697.745	6367
697.796	6406
697.847	6457
697.899	6482
697.95	6464
698.002	6396
698.053	6437
698.105	6370
698.156	6382
698.208	6441
698.259	6403
698.311	6345
698.362	6394
698.414	6405
698.465	6336
698.517	6397
698.568	6430
698.62	6319
698.671	6370
698.723	6328
698.774	6410
698.826	6331
698.877	6238
698.928	6288
698.98	6386
699.031	6315
699.083	6298
699.134	6311
699.186	6306
699.237	6276
699.289	6233
699.34	6267
699.392	6273
699.443	6239
699.495	6271
699.546	6316
699.598	6301
699.649	6296
699.7	6322
699.752	6282
699.803	6241
699.855	6269
699.906	6243
699.958	6191
700.009	6273
700.061	6260
700.112	6204
700.164	6217
700.215	6221
700.266	6277
700.318	6240
700.369	6228
700.421	6294
700.472	6240
700.524	6221
700.575	6220
700.627	6197
700.678	6220
700.73	6244
700.781	6218
700.832	6211
700.884	6253
700.935	6232
700.987	6280
701.038	6221
701.09	6212
701.141	6144
701.193	6226
701.244	6257
701.295	6214
701.347	6253
701.398	6273
701.45	6219
701.501	6267
701.553	6214
701.604	6157
701.656	6184
701.707	6278
701.758	6210
701.81	6204
701.861	6268
701.913	6232
701.964	6166
702.016	6305
702.067	6223
702.119	6226
702.17	6236
702.221	6261
702.273	6230
702.324	6228
702.376	6214
702.427	6228
702.479	6255
702.53	6285
702.581	6221
702.633	6276
702.684	6266
702.736	6195
702.787	6208
702.839	6219
702.89	6227
702.941	6209
702.993	6250
703.044	6297
703.096	6194
703.147	6221
703.199	6254
703.25	6231
703.301	6271
703.353	6247
703.404	6146
703.456	6243
703.507	6225
703.558	6246
703.61	6203
703.661	6208
703.713	6236
703.764	6131
703.816	6206
703.867	6219
703.918	6152
703.97	6215
704.021	6212
704.073	6188
704.124	6098
704.175	6200
704.227	6208
704.278	6232
704.33	6145
704.381	6154
704.432	6129
704.484	6199
704.535	6153
704.587	6210
704.638	6182
704.69	6179
704.741	6183
704.792	6089
704.844	6130
704.895	6175
704.947	6147
704.998	6094
705.049	6093
705.101	6216
705.152	6238
705.204	6187
705.255	6132
705.306	6134
705.358	6094
705.409	6087
705.461	6069
705.512	6048
705.563	6049
705.615	6058
705.666	6061
705.718	6106
705.769	6061
705.82	6083
705.872	6084
705.923	6072
705.974	6023
706.026	6044
706.077	5984
706.129	6043
706.18	6003
706.231	5996
706.283	6056
706.334	5957
706.386	5975
706.437	5942
706.488	6047
706.54	5962
706.591	5944
706.643	5936
706.694	6028
706.745	5998
706.797	5951
706.848	5993
706.899	5903
706.951	5930
707.002	5903
707.054	5924
707.105	5966
707.156	5911
707.208	5937
707.259	5847
707.31	5903
707.362	5896
707.413	5893
707.465	5898
707.516	5859
707.567	5803
707.619	5815
707.67	5892
707.721	5819
707.773	5850
707.824	5835
707.876	5841
707.927	5813
707.978	5833
708.03	5842
708.081	5881
708.132	5819
708.184	5839
708.235	5865
708.287	5854
708.338	5813
708.389	5854
708.441	5815
708.492	5804
708.543	5803
708.595	5819
708.646	5866
708.697	5839
708.749	5822
708.8	5780
708.852	5835
708.903	5805
708.954	5698
709.006	5739
709.057	5764
709.108	5782
709.16	5803
709.211	5767
709.262	5820
709.314	5840
709.365	5807
709.416	5749
709.468	5708
709.519	5832
709.57	5758
709.622	5747
709.673	5724
709.725	5789
709.776	5786
709.827	5701
709.879	5786
709.93	5830
709.981	5709
710.033	5814
710.084	5768
710.135	5744
710.187	5806
710.238	5686
710.289	5703
710.341	5725
710.392	5706
710.443	5755
710.495	5750
710.546	5734
710.597	5719
710.649	5758
710.7	5728
710.751	5695
710.803	5616
710.854	5728
710.905	5694
710.957	5729
711.008	5747
711.059	5672
711.111	5683
711.162	5620
711.213	5645
711.265	5736.32
711.316	5741.67
711.367	5713.06
711.419	5637.39
711.47	5675.73
711.521	5675.15
711.573	5676.4
711.624	5652.86
711.675	5644.44
711.727	5621.98
711.778	5661.84
711.829	5582.54
711.881	5665.04
711.932	5604.79
711.983	5676.18
712.035	5628.39
712.086	5622.66
712.137	5623.88
712.189	5633.57
712.24	5591.58
712.291	5587.06
712.343	5551.3
712.394	5600.96
712.445	5582.64
712.496	5559.6
712.548	5564.27
712.599	5569.06
712.65	5522.91
712.702	5519.73
712.753	5574.82
712.804	5551.2
712.856	5552.43
712.907	5561.36
712.958	5560.31
713.01	5513.39
713.061	5533.88
713.112	5507.57
713.164	5550.99
713.215	5509.77
713.266	5487.47
713.317	5473.68
713.369	5468.38
713.42	5478.02
713.471	5469.67
713.523	5429.44
713.574	5438.44
713.625	5485.61
713.677	5467.08
713.728	5438.76
713.779	5432.8
713.831	5422.81
713.882	5394.99
713.933	5391.34
713.984	5371.93
714.036	5368.56
714.087	5395.79
714.138	5417.18
714.19	5402.48
714.241	5378.83
714.292	5369.1
714.343	5382.65
714.395	5376.8
714.446	5333.13
714.497	5359.92
714.549	5354.57
714.6	5351.74
714.651	5347.86
714.703	5352.05
714.754	5324.45
714.805	5312.66
714.856	5321.38
714.908	5332.96
714.959	5293.49
715.01	5282.33
715.062	5298.88
715.113	5309.68
715.164	5306
715.215	5264.77
715.267	5244.98
715.318	5271.29
715.369	5272.38
715.421	5293.97
715.472	5280.38
715.523	5263.06
715.574	5217.66
715.626	5210.99
715.677	5228.95
715.728	5267.15
715.779	5217.25
715.831	5220.45
715.882	5229.41
715.933	5230.75
715.985	5227.64
716.036	5229.52
716.087	5203.6
716.138	5170.64
716.19	5200.97
716.241	5228.57
716.292	5166.73
716.343	5169.61
716.395	5210.14
716.433	5224
716.485	5150
716.536	5198
716.588	5151
716.639	5076
716.691	5141
716.742	5134
716.794	5145
716.845	5132
716.897	5142
716.948	5105
717	5159
717.052	5072
717.103	5151
717.155	5110
717.206	5083
717.258	5041
717.309	5121
717.361	5093
717.412	5079
717.464	4978
717.515	5081
717.567	5087
717.618	5093
717.67	5088
717.721	5084
717.773	5083
717.824	5064
717.876	5096
717.927	5025
717.979	5059
718.03	5095
718.082	5020
718.133	5047
718.185	5063
718.237	5034
718.288	5037
718.34	5062
718.391	5009
718.443	5028
718.494	5012
718.546	5076
718.597	5010
718.649	5010
718.7	5034
718.752	5019
718.803	4961
718.855	5010
718.906	4978
718.958	5007
719.009	4967
719.061	4937
719.112	4960
719.164	4967
719.215	4952
719.267	4967
719.318	4927
719.37	4983
719.421	5009
719.473	4947
719.524	4978
719.576	4974
719.627	4937
719.679	4997
719.73	4934
719.782	4944
719.833	4927
719.885	4891
719.936	4872
719.988	4916
720.039	4894
720.091	4869
720.142	4869
720.194	4911
720.245	4938
720.297	4843
720.348	4870
720.4	4824
720.451	4825
720.503	4861
720.554	4853
720.606	4848
720.657	4900
720.709	4826
720.76	4787
720.812	4855
720.863	4837
720.915	4828
720.966	4781
721.018	4793
721.069	4812
721.121	4780
721.172	4787
721.224	4723
721.275	4808
721.327	4730
721.378	4786
721.43	4801
721.481	4740
721.532	4749
721.584	4796
721.635	4711
721.687	4809
721.738	4709
721.79	4703
721.841	4680
721.893	4691
721.944	4614
721.996	4673
722.047	4641
722.099	4716
722.15	4662
722.202	4621
722.253	4681
722.305	4655
722.356	4681
722.408	4586
722.459	4604
722.511	4637
722.562	4665
722.614	4553
722.665	4652
722.716	4638
722.768	4665
722.819	4656
722.871	4610
722.922	4612
722.974	4607
723.025	4534
723.077	4566
723.128	4651
723.18	4558
723.231	4576
723.283	4589
723.334	4593
723.386	4516
723.437	4508
723.488	4553
723.54	4548
723.591	4559
723.643	4558
723.694	4514
723.746	4478
723.797	4548
723.849	4586
723.9	4412
723.952	4521
724.003	4507
724.055	4509
724.106	4466
724.157	4479
724.209	4459
724.26	4483
724.312	4497
724.363	4524
724.415	4478
724.466	4555
724.518	4486
724.569	4462
724.621	4421
724.672	4487
724.723	4427
724.775	4451
724.826	4457
724.878	4477
724.929	4506
724.981	4431
725.032	4432
725.084	4426
725.135	4383
725.187	4471
725.238	4391
725.289	4459
725.341	4446
725.392	4409
725.444	4372
725.495	4477
725.547	4412
725.598	4421
725.65	4442
725.701	4415
725.752	4339
725.804	4383
725.855	4390
725.907	4356
725.958	4388
726.01	4312
726.061	4383
726.112	4314
726.164	4404
726.215	4338
726.267	4304
726.318	4377
726.37	4350
726.421	4386
726.473	4345
726.524	4331
726.575	4346
726.627	4326
726.678	4321
726.73	4322
726.781	4255
726.833	4347
726.884	4295
726.935	4299
726.987	4301
727.038	4263
727.09	4265
727.141	4307
727.193	4317
727.244	4249
727.295	4225
727.347	4208
727.398	4202
727.45	4248
727.501	4220
727.552	4213
727.604	4237
727.655	4179
727.707	4173
727.758	4209
727.81	4162
727.861	4217
727.912	4259
727.964	4180
728.015	4209
728.067	4149
728.118	4179
728.17	4188
728.221	4108
728.272	4209
728.324	4122
728.375	4152
728.427	4113
728.478	4117
728.529	4139
728.581	4120
728.632	4133
728.684	4102
728.735	4090
728.786	4088
728.838	4135
728.889	4115
728.941	4051
728.992	4100
729.044	4086
729.095	4071
729.146	4047
729.198	4064
729.249	4052
729.301	3983
729.352	4015
729.403	4061
729.455	4017
729.506	4034
729.558	4002
729.609	4006
729.66	3950
729.712	3969
729.763	3975
729.815	3979
729.866	3948
729.917	3998
729.969	3973
730.02	3927
730.072	3936
730.123	3953
730.174	3956
730.226	3934
730.277	3922
730.329	3896
730.38	3913
730.431	3931
730.483	3903
730.534	3947
730.586	3866
730.637	3885
730.688	3830
730.74	3893
730.791	3891
730.842	3917
730.894	3885
730.945	3879
730.997	3871
731.048	3952
731.099	3885
731.151	3879
731.202	3904
731.254	3914
731.305	3822
731.356	3818
731.408	3790
731.459	3848
731.51	3818
731.562	3837
731.613	3877
731.665	3816
731.716	3826
731.767	3873
731.819	3824
731.87	3865
731.922	3784
731.973	3842
732.024	3772
732.076	3754
732.127	3777
732.178	3812
732.23	3806
732.281	3791
732.333	3795
732.384	3819
732.435	3795
732.487	3738
732.538	3753
732.589	3800
732.641	3754
732.692	3764
732.744	3805
732.795	3695
732.846	3735
732.898	3731
732.949	3773
733	3753
733.052	3737
733.103	3775
733.154	3765
733.206	3766
733.257	3766
733.309	3745
733.36	3750
733.411	3769
733.463	3659
733.514	3760
733.565	3752
733.617	3697
733.668	3742
733.719	3752
733.771	3685
733.822	3712
733.873	3688
733.925	3701
733.976	3669
734.028	3684
734.079	3697
734.13	3753
734.182	3663
734.233	3718
734.284	3711
734.336	3704
734.387	3670
734.438	3712
734.49	3648
734.541	3632
734.592	3690
734.644	3728
734.695	3727
734.747	3729
734.798	3663
734.849	3687
734.901	3710
734.952	3695
735.003	3658
735.055	3711
735.106	3680
735.157	3639
735.209	3605
735.26	3683
735.311	3656
735.363	3656
735.414	3668
735.465	3625
735.517	3659
735.568	3691
735.619	3612
735.671	3677
735.722	3646
735.773	3653
735.825	3589
735.876	3615
735.927	3631
735.979	3643
736.03	3589
736.081	3596
736.133	3643
736.184	3664
736.235	3674
736.287	3682
736.338	3551
736.389	3605
736.441	3583
736.492	3590
736.543	3624
736.595	3597
736.646	3665
736.697	3621
736.749	3650
736.8	3622
736.851	3588
736.903	3585
736.954	3644
737.005	3628
737.057	3606
737.108	3636
737.159	3693
737.211	3636
737.262	3589
737.313	3584
737.365	3645
737.416	3593
737.467	3595
737.518	3562
737.57	3601
737.621	3659
737.672	3627
737.724	3592
737.775	3597
737.826	3570
737.878	3599
737.929	3616
737.98	3574
738.032	3579
738.083	3556
738.134	3598
738.186	3577
738.237	3640
738.288	3608
738.339	3584
738.391	3614
738.442	3629
738.493	3598
738.545	3628
738.596	3649
738.647	3597
738.699	3604
738.75	3581
738.801	3506
738.853	3532
738.904	3533
738.955	3563
739.006	3555
739.058	3603
739.109	3581
739.16	3603
739.212	3539
739.263	3506
739.314	3549
739.366	3515
739.417	3542
739.468	3512
739.519	3522
739.571	3558
739.622	3532
739.673	3517
739.725	3512
739.776	3508
739.827	3524
739.878	3517
739.93	3528
739.981	3532
740.032	3486
740.084	3453
740.135	3461
740.186	3431
740.237	3469
740.289	3532
740.34	3516
740.391	3482
740.443	3488
740.494	3472
740.545	3427
740.596	3449
740.648	3416
740.699	3429
740.75	3451
740.802	3429
740.853	3417
740.904	3433
740.956	3433
741.007	3456
741.058	3411
741.109	3429
741.161	3394
741.212	3390
741.263	3387
741.314	3393
741.366	3405
741.417	3370
741.468	3399
741.52	3381
741.571	3396
741.622	3396
741.673	3400
741.725	3375
741.776	3381
741.827	3311
741.878	3362
741.93	3347
741.981	3301
742.032	3361
742.083	3391
742.135	3409
742.186	3384
742.237	3279
742.289	3287
742.34	3343
742.391	3331
742.442	3340
742.494	3349
742.545	3313
742.596	3321
742.647	3285
742.699	3296
742.75	3312
742.801	3296
742.852	3283
742.904	3333
742.955	3310
743.006	3312
743.057	3298
743.109	3336
743.16	3283
743.211	3287
743.263	3232
743.314	3252
743.365	3297
743.416	3318
743.468	3265
743.519	3239
743.57	3226
743.621	3251
743.672	3308
743.724	3271
743.775	3245
743.826	3211
743.878	3250
743.929	3200
743.98	3272
744.031	3238
744.083	3248
744.134	3220
744.185	3199
744.236	3216
744.287	3218
744.339	3270
744.39	3247
744.441	3159
744.492	3196
744.544	3207
744.595	3224
744.646	3209
744.697	3184
744.749	3195
744.8	3191
744.851	3238
744.902	3214
744.954	3238
745.005	3188
745.056	3225
745.107	3185
745.159	3164
745.21	3193
745.261	3173
745.312	3141
745.363	3192
745.415	3172
745.466	3162
745.517	3118
745.568	3159
745.62	3121
745.671	3090
745.722	3150
745.773	3099
745.824	3123
745.876	3131
745.927	3146
745.978	3155
746.029	3151
746.081	3124
746.132	3116
746.183	3141
746.234	3090
746.285	3086
746.337	3117
746.388	3125
746.439	3129
746.49	3088
746.542	3106
746.593	3104
746.644	3115
746.695	3043
746.746	3058
746.798	3074
746.849	3111
746.9	3055
746.951	3014
747.003	3065
747.054	3092
747.105	3055
747.156	2995
747.207	3079
747.259	3077
747.31	3059
747.361	2990
747.412	3106
747.463	3004
747.515	3020
747.566	3055
747.617	3085
747.668	3066
747.719	3079
747.771	3007
747.822	3054
747.873	2989
747.924	3027
747.975	3048
748.027	3039
748.078	3022
748.129	3036
748.18	3002
748.231	3035
748.283	3009
748.334	3010
748.385	2972
748.436	3007
748.487	3037
748.539	3001
748.59	3013
748.641	3005
748.692	3000
748.743	2946
748.795	2976
748.846	2989
748.897	3000
748.948	2978
748.999	2961
749.05	2975
749.102	2962
749.153	2941
749.204	2969
749.255	2942
749.306	2979
749.358	2971
749.409	2966
749.46	2946
749.511	2916
749.562	2946
749.614	2918
749.665	2974
749.716	3029
749.767	2948
749.818	2962
749.869	2982
749.921	3003
749.972	2951
750.023	2928
750.074	2910
750.125	2914
750.177	2906
750.228	2884
750.279	2955
750.33	2960
750.381	2890
750.432	2975
750.484	2930
750.535	2923
750.586	2917
750.637	2848
750.688	2901
750.739	2891
750.791	2912
750.842	2901
750.893	2893
750.944	2879
750.995	2877
751.046	2837
751.098	2854
751.149	2870
751.2	2865
751.251	2854
751.302	2876
751.353	2804
751.404	2852
751.456	2873
751.507	2793
751.558	2854
751.609	2869
751.66	2812
751.711	2837
751.763	2811
751.814	2785
751.865	2795
751.916	2820
751.967	2861
752.018	2799
752.07	2821
752.121	2794
752.172	2816
752.223	2775
752.274	2802
752.325	2728
752.376	2804
752.428	2789
752.479	2754
752.53	2778
752.581	2778
752.632	2792
752.683	2815
752.734	2737
752.786	2757
752.837	2771
752.888	2752
752.939	2763
752.99	2711
753.041	2731
753.092	2736
753.144	2758
753.195	2740
753.246	2775
753.297	2723
753.348	2727
753.399	2713
753.45	2751
753.502	2764
753.553	2687
753.604	2768
753.655	2766
753.706	2714
753.757	2738
753.808	2696
753.859	2692
753.911	2726
753.962	2685
754.013	2684
754.064	2733
754.115	2669
754.166	2663
754.217	2681
754.269	2691
754.32	2664
754.371	2669
754.422	2653
754.473	2671
754.524	2672
754.575	2666
754.626	2656
754.678	2664
754.729	2692
754.78	2622
754.831	2648
754.882	2611
754.933	2618
754.984	2647
755.035	2614
755.086	2676
755.138	2688
755.189	2608
755.24	2616
755.291	2628
755.342	2574
755.393	2610
755.444	2589
755.495	2576
755.547	2595
755.598	2617
755.649	2603
755.7	2584
755.751	2612
755.802	2590
755.853	2582
755.904	2600
755.955	2636
756.006	2569
756.058	2623
756.109	2614
756.16	2598
756.211	2573
756.262	2609
756.313	2607
756.364	2554
756.415	2594
756.466	2596
756.518	2568
756.569	2584
756.62	2536
756.671	2579
756.722	2554
756.773	2549
756.824	2536
756.875	2551
756.926	2530
756.977	2519
757.029	2529
757.08	2513
757.131	2528
757.182	2511
757.233	2511
757.284	2559
757.335	2491
757.386	2516
757.437	2520
757.488	2526
757.539	2566
757.59	2458
757.642	2512
757.693	2504
757.744	2535
757.795	2501
757.846	2504
757.897	2495
757.948	2453
757.999	2472
758.05	2474
758.101	2494
758.152	2440
758.203	2454
758.255	2487
758.306	2484
758.357	2465
758.408	2467
758.459	2484
758.51	2477.13
758.561	2509.88
758.612	2479.11
758.663	2456.68
758.714	2463.69
758.765	2452.53
758.816	2456.84
758.867	2456.16
758.919	2488.68
758.97	2441.48
759.021	2469.25
759.072	2426.56
759.123	2474.79
759.174	2434.27
759.225	2457.08
759.276	2394
759.327	2415.52
759.378	2445.53
759.429	2462.85
759.48	2451.83
759.531	2408.45
759.582	2408.98
759.633	2387.62
759.685	2421.41
759.736	2400.66
759.787	2399.69
759.838	2418.05
759.889	2376.94
759.94	2368.6
759.991	2397.68
760.042	2405.07
760.093	2411.32
760.144	2380.82
760.195	2387.31
760.246	2382.43
760.297	2348.6
760.348	2392.22
760.399	2349.46
760.45	2337.42
760.501	2329.32
760.552	2335.53
760.603	2333.51
760.655	2307.78
760.706	2330.52
760.757	2352.45
760.808	2335.81
760.859	2321.72
760.91	2320.1
760.961	2321.59
761.012	2358.34
761.063	2318.72
761.114	2320.66
761.165	2336.33
761.216	2335.45
761.267	2319.82
761.318	2362.06
761.369	2318.95
761.42	2315.7
761.471	2283.92
761.522	2267.54
761.573	2320.44
761.624	2303.56
761.675	2297.79
761.726	2300.66
761.777	2303.5
761.828	2336.24
761.88	2313.07
761.931	2298.48
761.982	2313.87
762.033	2301.15
762.084	2311.77
762.135	2293.52
762.186	2270.35
762.237	2284.02
762.288	2307.26
762.339	2292.14
762.39	2289.16
762.441	2289.54
762.492	2239.99
762.543	2273.37
762.594	2276.41
762.645	2231.78
762.696	2242.73
762.747	2252.8
762.798	2230.3
762.849	2219.91
762.9	2236.61
762.951	2238.31
763.002	2237.11
763.053	2241.7
763.104	2232.24
763.155	2251.45
763.206	2220.58
763.257	2236.95
763.308	2225.31
763.359	2205.92
763.41	2184.13
763.461	2215.86
763.512	2220.09
763.563	2202.55
763.614	2194.12
763.665	2213.9
763.678	2221
763.729	2215
763.78	2205
763.832	2179
763.883	2191
763.934	2158
763.986	2162
764.037	2186
764.088	2202
764.139	2197
764.191	2142
764.242	2192
764.293	2207
764.345	2155
764.396	2137
764.447	2167
764.498	2189
764.55	2154
764.601	2188
764.652	2155
764.704	2129
764.755	2116
764.806	2163
764.857	2115
764.909	2136
764.96	2144
765.011	2166
765.062	2192
765.114	2129
765.165	2119
765.216	2116
765.268	2106
765.319	2137
765.37	2131
765.421	2147
765.473	2119
765.524	2139
765.575	2117
765.626	2125
765.678	2123
765.729	2113
765.78	2114
765.831	2078
765.883	2109
765.934	2101
765.985	2092
766.036	2100
766.088	2100
766.139	2077
766.19	2114
766.242	2105
766.293	2063
766.344	2089
766.395	2072
766.447	2045
766.498	2059
766.549	2053
766.6	2063
766.652	2037
766.703	2080
766.754	2067
766.805	2048
766.857	2073
766.908	2073
766.959	2074
767.01	2043
767.062	2056
767.113	2082
767.164	2057
767.215	2071
767.267	2036
767.318	2051
767.369	2036
767.42	2030
767.472	2003
767.523	2040
767.574	2022
767.625	1988
767.677	2033
767.728	2010
767.779	2019
767.83	2007
767.882	1970
767.933	2016
767.984	1998
768.035	1985
768.087	2024
768.138	1996
768.189	1996
768.24	2012
768.292	2024
768.343	1954
768.394	1976
768.445	2009
768.497	1989
768.548	1954
768.599	1976
768.65	1962
768.701	1984
768.753	2002
768.804	1977
768.855	1963
768.906	1940
768.958	1946
769.009	1945
769.06	1945
769.111	1966
769.163	1949
769.214	1938
769.265	1942
769.316	1934
769.367	1944
769.419	1929
769.47	1927
769.521	1929
769.572	1944
769.624	1933
769.675	1935
769.726	1895
769.777	1926
769.828	1918
769.88	1906
769.931	1929
769.982	1894
770.033	1899
770.085	1852
770.136	1881
770.187	1894
770.238	1886
770.289	1881
770.341	1893
770.392	1899
770.443	1875
770.494	1869
770.546	1876
770.597	1845
770.648	1868
770.699	1846
770.75	1858
770.802	1849
770.853	1857
770.904	1876
770.955	1860
771.006	1859
771.058	1865
771.109	1866
771.16	1862
771.211	1837
771.263	1825
771.314	1853
771.365	1845
771.416	1855
771.467	1823
771.519	1858
771.57	1859
771.621	1818
771.672	1863
771.723	1826
771.775	1829
771.826	1805
771.877	1810
771.928	1770
771.979	1802
772.031	1800
772.082	1799
772.133	1763
772.184	1803
772.235	1813
772.287	1793
772.338	1794
772.389	1772
772.44	1775
772.491	1798
772.543	1808
772.594	1788
772.645	1739
772.696	1787
772.747	1745
772.799	1764
772.85	1755
772.901	1756
772.952	1730
773.003	1777
773.055	1734
773.106	1734
773.157	1731
773.208	1745
773.259	1743
773.31	1701
773.362	1746
773.413	1738
773.464	1716
773.515	1747
773.566	1738
773.618	1739
773.669	1725
773.72	1753
773.771	1740
773.822	1715
773.873	1715
773.925	1720
773.976	1689
774.027	1725
774.078	1703
774.129	1677
774.18	1752
774.232	1701
774.283	1716
774.334	1672
774.385	1717
774.436	1696
774.488	1684
774.539	1687
774.59	1685
774.641	1695
774.692	1680
774.743	1706
774.795	1676
774.846	1674
774.897	1672
774.948	1665
774.999	1605
775.05	1691
775.102	1655
775.153	1648
775.204	1660
775.255	1635
775.306	1661
775.357	1659
775.409	1628
775.46	1640
775.511	1674
775.562	1641
775.613	1646
775.664	1656
775.716	1642
775.767	1630
775.818	1615
775.869	1638
775.92	1643
775.971	1622
776.023	1633
776.074	1628
776.125	1591
776.176	1624
776.227	1632
776.278	1621
776.329	1607
776.381	1612
776.432	1582
776.483	1627
776.534	1616
776.585	1598
776.636	1625
776.688	1570
776.739	1588
776.79	1580
776.841	1566
776.892	1620
776.943	1596
776.994	1577
777.046	1616
777.097	1587
777.148	1583
777.199	1558
777.25	1550
777.301	1588
777.352	1573
777.404	1559
777.455	1571
777.506	1568
777.557	1538
777.608	1502
777.659	1564
777.71	1550
777.762	1566
777.813	1553
777.864	1557
777.915	1573
777.966	1571
778.017	1517
778.068	1526
778.12	1470
778.171	1530
778.222	1575
778.273	1529
778.324	1537
778.375	1523
778.426	1483
778.477	1536
778.529	1534
778.58	1488
778.631	1512
778.682	1531
778.733	1492
778.784	1512
778.835	1493
778.886	1492
778.938	1516
778.989	1505
779.04	1499
779.091	1555
779.142	1478
779.193	1500
779.244	1537
779.295	1528
779.347	1472
779.398	1476
779.449	1495
779.5	1480
779.551	1453
779.602	1428
779.653	1467
779.704	1493
779.755	1459
779.807	1504
779.858	1489
779.909	1474
779.96	1480
780.011	1480
780.062	1433
780.113	1436
780.164	1489
780.216	1446
780.267	1464
780.318	1471
780.369	1477
780.42	1429
780.471	1492
780.522	1429
780.573	1444
780.624	1439
780.675	1433
780.727	1420
780.778	1434
780.829	1425
780.88	1446
780.931	1455
780.982	1443
781.033	1421
781.084	1433
781.135	1412
781.187	1420
781.238	1421
781.289	1403
781.34	1411
781.391	1436
781.442	1401
781.493	1399
781.544	1394
781.595	1410
781.646	1432
781.698	1397
781.749	1403
781.8	1400
781.851	1402
781.902	1380
781.953	1369
782.004	1403
782.055	1386
782.106	1400
782.157	1393
782.208	1406
782.26	1425
782.311	1382
782.362	1388
782.413	1392
782.464	1338
782.515	1353
782.566	1376
782.617	1361
782.668	1344
782.719	1338
782.77	1381
782.821	1353
782.872	1340
782.924	1334
782.975	1343
783.026	1323
783.077	1350
783.128	1333
783.179	1328
783.23	1328
783.281	1322
783.332	1329
783.383	1333
783.434	1328
783.485	1326
783.536	1294
783.588	1302
783.639	1309
783.69	1316
783.741	1327
783.792	1321
783.843	1315
783.894	1292
783.945	1283
783.996	1311
784.047	1299
784.098	1316
784.149	1315
784.2	1277
784.252	1277
784.303	1310
784.354	1322
784.405	1264
784.456	1306
784.507	1273
784.558	1285
784.609	1271
784.66	1259
784.711	1257
784.762	1267
784.813	1258
784.864	1267
784.915	1258
784.966	1255
785.017	1258
785.068	1249
785.12	1282
785.171	1263
785.222	1228
785.273	1286
785.324	1315
785.375	1267
785.426	1269
785.477	1240
785.528	1271
785.579	1249
785.63	1239
785.681	1248
785.732	1264
785.783	1251
785.834	1257
785.885	1240
785.936	1262
785.987	1253
786.038	1215
786.089	1242
786.141	1244
786.192	1234
786.243	1216
786.294	1227
786.345	1262
786.396	1198
786.447	1212
786.498	1213
786.549	1212
786.6	1219
786.651	1188
786.702	1187
786.753	1189
786.804	1193
786.855	1226
786.906	1222
786.957	1219
787.008	1225
787.059	1203
787.11	1192
787.161	1198
787.212	1201
787.263	1190
787.314	1196
787.365	1168
787.416	1227
787.467	1183
787.518	1165
787.57	1165
787.621	1164
787.672	1166
787.723	1161
787.774	1200
787.825	1169
787.876	1170
787.927	1156
787.978	1190
788.029	1161
788.08	1177
788.131	1192
788.182	1148
788.233	1149
788.284	1160
788.335	1165
788.386	1188
788.437	1174
788.488	1131
788.539	1122
788.59	1147
788.641	1164
788.692	1172
788.743	1165
788.794	1136
788.845	1117
788.896	1117
788.947	1127
788.998	1160
789.049	1130
789.1	1166
789.151	1141
789.202	1142
789.253	1124
789.304	1131
789.355	1131
789.406	1116
789.457	1120
789.508	1126
789.559	1115
789.61	1102
789.661	1117
789.712	1112
789.763	1107
789.814	1093
789.865	1080
789.916	1120
789.967	1090
790.018	1122
790.069	1108
790.12	1104
790.171	1088
790.222	1091
790.273	1124
790.324	1100
790.375	1089
790.426	1111
790.477	1123
790.528	1094
790.579	1079
790.63	1090
790.681	1089
790.732	1061
790.783	1056
790.834	1086
790.885	1079
790.936	1094
790.987	1089
791.038	1051
791.089	1074
791.14	1036
791.191	1073
791.242	1066
791.293	1104
791.344	1057
791.395	1078
791.446	1060
791.497	1049
791.548	1040
791.599	1064
791.65	1045
791.701	1053
791.752	1054
791.803	1054
791.854	1070
791.905	1065
791.956	1051
792.007	1018
792.058	1027
792.109	1048
792.16	1037
792.211	1024
792.262	1047
792.313	1064
792.363	1009
792.414	1015
792.465	1020
792.516	1038
792.567	1024
792.618	1054
792.669	1012
792.72	1009
792.771	1012
792.822	1044
792.873	1015
792.924	1030
792.975	994
793.026	1022
793.077	1009
793.128	1005
793.179	1008
793.23	1025
793.281	1019
793.332	1040
793.383	1013
793.434	990
793.485	991
793.536	1005
793.587	997
793.638	1007
793.689	1005
793.74	1017
793.79	980
793.841	983
793.892	975
793.943	969
793.994	987
794.045	998
794.096	972
794.147	966
794.198	966
794.249	990
794.3	971
794.351	984
794.402	985
794.453	1001
794.504	957
794.555	985
794.606	949
794.657	995
794.708	972
794.758	993
794.809	974
794.86	973
794.911	978
794.962	969
795.013	939
795.064	956
795.115	986
795.166	954
795.217	946
795.268	947
795.319	949
795.37	943
795.421	953
795.472	969
795.523	960
795.573	935
795.624	962
795.675	942
795.726	937
795.777	932
795.828	920
795.879	952
795.93	924
795.981	932
796.032	922
796.083	913
796.134	957
796.185	932
796.236	944
796.286	921
796.337	919
796.388	933
796.439	946
796.49	893
796.541	904
796.592	912
796.643	902
796.694	900
796.745	934
796.796	920
796.847	880
796.897	901
796.948	927
796.999	909
797.05	913
797.101	909
797.152	909
797.203	924
797.254	898
797.305	911
797.356	906
797.407	875
797.458	894
797.508	869
797.559	902
797.61	905
797.661	900
797.712	903
797.763	882
797.814	863
797.865	885
797.916	845
797.967	879
798.018	888
798.068	881
798.119	868
798.17	874
798.221	893
798.272	865
798.323	870
798.374	843
798.425	871
798.476	852
798.526	880
798.577	845
798.628	835
798.679	843
798.73	841
798.781	847
798.832	853
798.883	848
798.934	872
798.984	855
799.035	863
799.086	855
799.137	871
799.188	822
799.239	860
799.29	860
799.341	847
799.392	877
799.443	840
799.493	859
799.544	856
799.595	818
799.646	864
799.697	864
799.748	830
799.799	839
799.85	817
799.9	842
799.951	843
800.002	830
800.053	820
800.104	809
800.155	851
800.206	827
800.257	830
800.307	820
800.358	818
800.409	827
800.46	811
800.511	799
800.562	829
800.613	839
800.664	834
800.714	825
800.765	848
800.816	816
800.867	795
800.918	804
800.969	802
801.02	792
801.07	802
801.121	798
801.172	800
801.223	820
801.274	793
801.325	784
801.376	797
801.427	786
801.477	780
801.528	799
801.579	790
801.63	818
801.681	809
801.732	775
801.783	804
801.833	783
801.884	768
801.935	778
801.986	800
802.037	793
802.088	792
802.139	755
802.189	778
802.24	769
802.291	780
802.342	799
802.393	762
802.444	784
802.495	780
802.545	777
802.596	783
802.647	765
802.698	778
802.749	756
802.8	785
802.85	783
802.901	786
802.952	751
803.003	750
803.054	736
803.105	782
803.155	764
803.206	747
803.257	774
803.308	739
803.359	745
803.41	753
803.46	769
803.511	729
803.562	755
803.613	755
803.664	746
803.715	744
803.765	734
803.816	743
803.867	772
803.918	723
803.969	709
804.02	745
804.07	739
804.121	757
804.172	728
804.223	724
804.274	755
804.325	743
804.375	730
804.426	733
804.477	720
804.528	736
804.579	751
804.63	711
804.68	715
804.731	732
804.782	745
804.833	726
804.884	741
804.934	719
804.985	721
805.036	738
805.087	744
805.138	727
805.188	710
805.239	726
805.29	729
805.341	700
805.392	716
805.443	694
805.493	707.054
805.544	719.004
805.595	727.054
805.646	704.245
805.697	709.961
805.747	727.096
805.798	711.248
805.849	695.839
805.9	719.052
805.951	707.598
806.001	716.713
806.052	694.077
806.103	698.233
806.154	716.563
806.205	695.729
806.255	716.674
806.306	695.963
806.357	677.151
806.408	702.168
806.459	698.044
806.509	707.376
806.56	706.077
806.611	700.5
806.662	689.696
806.713	684.589
806.763	685.288
806.814	697.456
806.865	677.298
806.916	690.899
806.967	677.92
807.017	680.514
807.068	682.335
807.119	688.158
807.17	679.928
807.22	673.986
807.271	680.873
807.322	671.246
807.373	683.736
807.424	684.775
807.474	681.738
807.525	686.221
807.576	671.238
807.627	668.072
807.678	662.67
807.728	658.724
807.779	672.88
807.83	665.482
807.881	676.762
807.931	686.022
807.982	665.131
808.033	666.048
808.084	664.341
808.135	656.098
808.185	673.268
808.236	658.593
808.287	666.271
808.338	668.911
808.388	658.69
808.439	661.458
808.49	659.854
808.541	641.382
808.591	654.127
808.642	654.129
808.693	649.328
808.744	664.794
808.795	638.735
808.845	649.704
808.896	638.902
808.947	632.827
808.998	638.542
809.048	649.251
809.099	638.75
809.15	638.081
809.201	637.347
809.251	664.262
809.302	627.776
809.353	634.046
809.404	640.263
809.454	624.683
809.505	624.123
809.556	638.956
809.607	614.863
809.658	640.421
809.708	633.298
809.759	621.324
809.81	628.437
809.861	626.32
809.911	641.282
809.962	636.663
810.013	640.097
810.064	640.821
810.114	641.528
810.165	623.534
810.216	615.478
810.267	611.985
810.317	619.382
810.368	627.005
810.419	606.627
810.469	597.234
810.52	594.237
810.571	624.332
810.622	620.839
810.627	620
810.678	647
810.729	606
810.78	626
810.831	606
810.882	625
810.933	612
810.984	616
811.035	602
811.086	634
811.137	627
811.188	608
811.239	604
811.29	606
811.341	601
811.392	601
811.443	606
811.494	635
811.545	614
811.596	594
811.648	599
811.699	600
811.75	606
811.801	584
811.852	617
811.903	602
811.954	606
812.005	597
812.056	588
812.107	598
812.158	598
812.209	600
812.26	599
812.311	575
812.362	591
812.413	581
812.464	568
812.515	582
812.566	586
812.617	598
812.668	588
812.719	579
812.77	579
812.821	587
812.872	577
812.923	595
812.974	575
813.025	582
813.076	577
813.127	583
813.178	581
813.229	561
813.28	551
813.331	565
813.382	573
813.433	575
813.484	568
813.535	572
813.586	566
813.637	563
813.688	569
813.739	570
813.79	554
813.841	550
813.892	571
813.943	569
813.994	575
814.045	550
814.096	561
814.147	552
814.198	566
814.249	560
814.3	560
814.351	539
814.402	538
814.453	557
814.504	549
814.555	562
814.606	535
814.657	539
814.708	560
814.759	564
814.81	547
814.861	558
814.912	550
814.963	575
815.014	573
815.065	546
815.116	563
815.167	550
815.217	557
815.268	561
815.319	552
815.37	532
815.421	532
815.472	538
815.523	542
815.574	555
815.625	528
815.676	545
815.727	524
815.778	546
815.829	524
815.88	557
815.931	515
815.982	529
816.033	526
816.084	541
816.135	522
816.186	522
816.237	531
816.288	536
816.339	541
816.39	535
816.441	528
816.492	537
816.543	524
816.594	529
816.645	522
816.696	536
816.747	519
816.798	507
816.849	510
816.9	542
816.951	514
817.001	536
817.052	523
817.103	530
817.154	522
817.205	515
817.256	503
817.307	524
817.358	520
817.409	524
817.46	508
817.511	510
817.562	508
817.613	520
817.664	526
817.715	513
817.766	525
817.817	512
817.868	518
817.919	511
817.97	522
818.021	508
818.071	499
818.122	508
818.173	516
818.224	503
818.275	506
818.326	496
818.377	501
818.428	509
818.479	486
818.53	496
818.581	503
818.632	492
818.683	507
818.734	500
818.785	499
818.836	521
818.887	483
818.938	509
818.988	491
819.039	498
819.09	489
819.141	483
819.192	490
819.243	507
819.294	480
819.345	485
819.396	501
819.447	502
819.498	492
819.549	487
819.6	505
819.651	506
819.702	485
819.753	494
819.803	476
819.854	472
819.905	501
819.956	496
820.007	474
820.058	481
820.109	484
820.16	479
820.211	481
820.262	502
820.313	478
820.364	472
820.415	473
820.465	495
820.516	474
820.567	466
820.618	460
820.669	468
820.72	471
820.771	480
820.822	478
820.873	482
820.924	478
820.975	458
821.026	470
821.076	461
821.127	479
821.178	453
821.229	465
821.28	460
821.331	479
821.382	467
821.433	470
821.484	471
821.535	459
821.586	461
821.637	472
821.687	466
821.738	453
821.789	469
821.84	472
821.891	455
821.942	470
821.993	442
822.044	447
822.095	456
822.146	452
822.196	455
822.247	466
822.298	465
822.349	445
822.4	445
822.451	461
822.502	475
822.553	452
822.604	475
822.655	446
822.706	450
822.756	450
822.807	429
822.858	455
822.909	445
822.96	455
823.011	446
823.062	457
823.113	448
823.164	452
823.214	442
823.265	455
823.316	437
823.367	447
823.418	444
823.469	425
823.52	448
823.571	455
823.622	426
823.672	450
823.723	427
823.774	425
823.825	432
823.876	447
823.927	440
823.978	431
824.029	437
824.08	428
824.13	432
824.181	441
824.232	423
824.283	434
824.334	434
824.385	430
824.436	441
824.487	414
824.537	423
824.588	436
824.639	421
824.69	415
824.741	413
824.792	438
824.843	414
824.893	428
824.944	418
824.995	415
825.046	428
825.097	431
825.148	424
825.199	413
825.25	428
825.3	436
825.351	430
825.402	411
825.453	425
825.504	411
825.555	425
825.606	416
825.657	400
825.707	423
825.758	418
825.809	413
825.86	430
825.911	406
825.962	412
826.013	413
826.063	403
826.114	400
826.165	416
826.216	415
826.267	401
826.318	401
826.369	409
826.419	406
826.47	393
826.521	426
826.572	389
826.623	417
826.674	398
826.725	396
826.775	419
826.826	396
826.877	384
826.928	406
826.979	411
827.03	394
827.08	395
827.131	403
827.182	404
827.233	420
827.284	404
827.335	389
827.386	396
827.436	412
827.487	409
827.538	406
827.589	412
827.64	403
827.691	403
827.741	389
827.792	400
827.843	403
827.894	402
827.945	408
827.996	400
828.046	387
828.097	388
828.148	420
828.199	403
828.25	389
828.301	381
828.351	393
828.402	396
828.453	395
828.504	372
828.555	389
828.606	391
828.656	389
828.707	377
828.758	390
828.809	380
828.86	378
828.911	376
828.961	386
829.012	398
829.063	401
829.114	387
829.165	394
829.216	386
829.266	398
829.317	381
829.368	396
829.419	367
829.47	380
829.52	364
829.571	391
829.622	396
829.673	383
829.724	389
829.774	370
829.825	372
829.876	382
829.927	370
829.978	377
830.029	362
830.079	376
830.13	382
830.181	393
830.232	374
830.283	371
830.333	370
830.384	370
830.435	361
830.486	380
830.537	397
830.587	392
830.638	381
830.689	368
830.74	367
830.791	368
830.841	356
830.892	368
830.943	364
830.994	382
831.045	367
831.095	362
831.146	366
831.197	368
831.248	368
831.299	367
831.349	380
831.4	367
831.451	361
831.502	365
831.553	354
831.603	374
831.654	367
831.705	370
831.756	356
831.807	356
831.857	336
831.908	377
831.959	358
832.01	354
832.061	347
832.111	372
832.162	356
832.213	342
832.264	363
832.315	367
832.365	361
832.416	367
832.467	362
832.518	365
832.568	362
832.619	358
832.67	358
832.721	372
832.772	369
832.822	348
832.873	335
832.924	348
832.975	352
833.025	343
833.076	355
833.127	355
833.178	355
833.229	370
833.279	346
833.33	351
833.381	343
833.432	359
833.482	332
833.533	352
833.584	346
833.635	350
833.685	348
833.736	359
833.787	343
833.838	333
833.889	352
833.939	355
833.99	332
834.041	332
834.092	339
834.142	336
834.193	349
834.244	358
834.295	343
834.345	345
834.396	350
834.447	329
834.498	352
834.548	361
834.599	335
834.65	333
834.701	335
834.751	336
834.802	329
834.853	337
834.904	344
834.954	344
835.005	333
835.056	326
835.107	322
835.157	342
835.208	315
835.259	347
835.31	341
835.36	329
835.411	336
835.462	341
835.513	338
835.563	334
835.614	320
835.665	331
835.716	341
835.766	335
835.817	321
835.868	310
835.919	313
835.969	336
836.02	336
836.071	338
836.122	319
836.172	333
836.223	321
836.274	323
836.325	323
836.375	327
836.426	329
836.477	324
836.528	309
836.578	327
836.629	316
836.68	331
836.73	323
836.781	324
836.832	324
836.883	311
836.933	314
836.984	334
837.035	314
837.086	344
837.136	331
837.187	317
837.238	325
837.288	320
837.339	319
837.39	325
837.441	333
837.491	312
837.542	316
837.593	319
837.643	326
837.694	313
837.745	320
837.796	318
837.846	307
837.897	326
837.948	319
837.999	319
838.049	308
838.1	321
838.151	302
838.201	310
838.252	314
838.303	337
838.354	307
838.404	318
838.455	312
838.506	326
838.556	306
838.607	312
838.658	307
838.708	321
838.759	298
838.81	320
838.861	311
838.911	312
838.962	314
839.013	311
839.063	296
839.114	304
839.165	316
839.216	293
839.266	310
839.317	314
839.368	305
839.418	317
839.469	313
839.52	304
839.57	303
839.621	311
839.672	306
839.722	313
839.773	306
839.824	312
839.875	294
839.925	297
839.976	291
840.027	307
840.077	301
840.128	292
840.179	317
840.229	310
840.28	309
840.331	312
840.381	289
840.432	294
840.483	288
840.534	299
840.584	296
840.635	307
840.686	288
840.736	291
840.787	303
840.838	308
840.888	307
840.939	292
840.99	300
841.04	283
841.091	295
841.142	302
841.192	287
841.243	305
841.294	294
841.344	289
841.395	302
841.446	289
841.496	304
841.547	283
841.598	295
841.648	287
841.699	283
841.75	283
841.8	301
841.851	279
841.902	283
841.952	292
842.003	275
842.054	290
842.104	296
842.155	289
842.206	275
842.256	290
842.307	276
842.358	287
842.408	285
842.459	292
842.51	288
842.56	286
842.611	275
842.662	294
842.712	276
842.763	277
842.814	267
842.864	300
842.915	291
842.966	295
843.016	295
843.067	292
843.118	294
843.168	282
843.219	282
843.269	282
843.32	296
843.371	271
843.421	285
843.472	273
843.523	283
843.573	282
843.624	283
843.675	294
843.725	298
843.776	293
843.827	275
843.877	271
843.928	277
843.979	274
844.029	278
844.08	288
844.13	276
844.181	282
844.232	272
844.282	269
844.333	270
844.384	286
844.434	263
844.485	289
844.536	273
844.586	277
844.637	276
844.687	265
844.738	273
844.789	288
844.839	267
844.89	273
844.941	264
844.991	264
845.042	274
845.092	269
845.143	274
845.194	275
845.244	263
845.295	257
845.346	258
845.396	270
845.447	277
845.497	278
845.548	277
845.599	270
845.649	263
845.7	282
845.75	270
845.801	268
845.852	265
845.902	251
845.953	258
846.004	280
846.054	264
846.105	270
846.155	281
846.206	272
846.257	273
846.307	266
846.358	265
846.409	272
846.459	275
846.51	283
846.56	259
846.611	265
846.661	251
846.712	259
846.763	270
846.813	265
846.864	276
846.915	280
846.965	275
847.016	258
847.066	255
847.117	269
847.168	273
847.218	267
847.269	272
847.319	258
847.37	273
847.421	263
847.471	253
847.522	264
847.572	251
847.623	258
847.674	270
847.724	253
847.775	263
847.825	244
847.876	260
847.926	270
847.977	262
848.028	254
848.078	251
848.129	257
848.179	252
848.23	248
848.281	270
848.331	268
848.382	256
848.432	241
848.483	255
848.534	262
848.584	258
848.635	259
848.685	259
848.736	255
848.786	256
848.837	242
848.888	254
848.938	261
848.989	248
849.039	258
849.09	249
849.14	253
849.191	251
849.242	249
849.292	245
849.343	241
849.393	246
849.444	233
849.494	262
849.545	243
849.596	253
849.646	238
849.697	246
849.747	239
849.798	248
849.848	258
849.899	237
849.95	244
850	249
850.051	248
850.101	247
850.152	241
850.202	239
850.253	239
850.303	245
850.354	248
850.405	249
850.455	237
850.506	233
850.556	238
850.607	246
850.657	240
850.708	250
850.758	236
850.809	242
850.86	234
850.91	225
850.961	229
851.011	227
851.062	239
851.112	250
851.163	234
851.213	231
851.264	243
851.314	233
851.365	240
851.416	249
851.466	241
851.517	237
851.567	234
851.618	238
851.668	229
851.719	234
851.769	230
851.82	232
851.87	236
851.921	235
851.971	226
852.022	241
852.073	222
852.123	223
852.174	238
852.224	240
852.275	227
852.325	236.004
852.376	227.05
852.426	232.297
852.477	225.456
852.527	227.104
852.578	228.109
852.628	224.195
852.679	220.641
852.729	229.601
852.78	229.546
852.831	231.47
852.881	223.584
852.932	226.291
852.982	238.033
853.033	229.689
853.083	221.869
853.134	229.544
853.184	234.436
853.235	235.15
853.285	245.527
853.336	235.35
853.386	236.685
853.437	242.742
853.487	216.181
853.538	220.926
853.588	222.942
853.639	218.156
853.689	227.319
853.74	227
853.79	224.584
853.841	226.27
853.891	230.79
853.942	225.473
853.992	234.97
854.043	223.077
854.093	224.388
854.144	224.607
854.194	218.488
854.245	220.255
854.295	232.633
854.346	222.035
854.396	225.554
854.447	217.802
854.497	220.924
854.548	222.608
854.598	222.802
854.649	221.393
854.699	225.1
854.75	223.367
854.8	213.471
854.851	218.222
854.901	218.794
854.952	225.943
855.002	223.498
855.053	214.277
855.103	223.42
855.154	225.491
855.204	216.214
855.255	214.316
855.305	220.747
855.356	220.362
855.406	215.505
855.457	217.875
855.507	210.141
855.558	225.265
855.608	225.554
855.659	216.394
855.709	218.847
855.76	219.575
855.81	211.008
855.861	210.384
855.911	209.768
855.962	209.961
856.012	216.846
856.063	221.026
856.113	218.249
856.164	217.195
856.214	212.841
856.265	214.054
856.315	215.975
856.366	211.171
856.416	218.413
856.467	220.606
856.517	210.07
856.568	213.906
856.618	207.577
856.668	200.862
856.719	212.312
856.769	210.86
856.82	203.873
856.87	206.842
856.921	213.668
856.971	214.069
857.022	213.465
857.072	212.09
857.123	211.209
857.173	213.054
857.224	209.4
857.274	212.165
857.325	210.198
857.352	208
857.403	214
857.453	209
857.504	205
857.555	219
857.606	202
857.656	208
857.707	207
857.758	206
857.809	213
857.859	215
857.91	199
857.961	208
858.012	204
858.063	215
858.113	205
858.164	208
858.215	210
858.266	198
858.316	191
858.367	213
858.418	201
858.469	202
858.519	199
858.57	205
858.621	207
858.672	200
858.722	214
858.773	208
858.824	192
858.875	210
858.925	199
858.976	203
859.027	196
859.078	206
859.128	200
859.179	218
859.23	209
859.281	202
859.331	199
859.382	194
859.433	210
859.483	211
859.534	199
859.585	205
859.636	200
859.686	212
859.737	200
859.788	192
859.839	204
859.889	209
859.94	194
859.991	193
860.042	198
860.092	190
860.143	187
860.194	202
860.245	195
860.295	200
860.346	193
860.397	196
860.447	198
860.498	209
860.549	193
860.6	196
860.65	212
860.701	203
860.752	184
860.802	207
860.853	193
860.904	189
860.955	195
861.005	190
861.056	190
861.107	193
861.158	193
861.208	194
861.259	195
861.31	201
861.36	194
861.411	193
861.462	192
861.513	190
861.563	189
861.614	191
861.665	193
861.715	183
861.766	185
861.817	200
861.868	188
861.918	190
861.969	192
862.02	193
862.07	190
862.121	209
862.172	199
862.223	183
862.273	181
862.324	179
862.375	178
862.425	189
862.476	199
862.527	190
862.577	189
862.628	200
862.679	182
862.73	188
862.78	195
862.831	212
862.882	192
862.932	180
862.983	180
863.034	186
863.084	185
863.135	189
863.186	194
863.237	195
863.287	186
863.338	192
863.389	190
863.439	187
863.49	202
863.541	193
863.591	177
863.642	182
863.693	190
863.744	200
863.794	182
863.845	191
863.896	189
863.946	183
863.997	184
864.048	199
864.098	173
864.149	190
864.2	176
864.25	186
864.301	189
864.352	182
864.402	169
864.453	186
864.504	190
864.555	179
864.605	178
864.656	187
864.707	196
864.757	197
864.808	178
864.859	191
864.909	175
864.96	184
865.011	173
865.061	184
865.112	189
865.163	183
865.213	173
865.264	180
865.315	178
865.365	186
865.416	180
865.467	184
865.517	182
865.568	195
865.619	180
865.669	175
865.72	178
865.771	179
865.821	181
865.872	182
865.923	177
865.973	181
866.024	187
866.075	187
866.125	176
866.176	187
866.227	180
866.277	195
866.328	181
866.379	181
866.429	185
866.48	183
866.531	183
866.581	182
866.632	171
866.683	173
866.733	183
866.784	180
866.835	172
866.885	181
866.936	178
866.987	178
867.037	175
867.088	172
867.138	183
867.189	175
867.24	180
867.29	182
867.341	173
867.392	185
867.442	174
867.493	172
867.544	189
867.594	179
867.645	173
867.696	163
867.746	184
867.797	181
867.848	176
867.898	178
867.949	184
867.999	165
868.05	163
868.101	177
868.151	170
868.202	171
868.253	171
868.303	164
868.354	187
868.405	173
868.455	168
868.506	170
868.556	171
868.607	171
868.658	175
868.708	161
868.759	171
868.81	178
868.86	169
868.911	179
868.961	175
869.012	175
869.063	164
869.113	169
869.164	172
869.215	174
869.265	176
869.316	170
869.367	173
869.417	165
869.468	168
869.518	170
869.569	175
869.62	155
869.67	158
869.721	170
869.771	170
869.822	169
869.873	169
869.923	163
869.974	168
870.025	171
870.075	161
870.126	168
870.176	172
870.227	173
870.278	169
870.328	159
870.379	167
870.43	165
870.48	155
870.531	166
870.581	178
870.632	175
870.683	166
870.733	154
870.784	168
870.834	168
870.885	158
870.936	162
870.986	156
871.037	165
871.087	158
871.138	164
871.189	164
871.239	158
871.29	147
871.34	172
871.391	162
871.442	160
871.492	169
871.543	146
871.593	173
871.644	160
871.695	164
871.745	162
871.796	160
871.846	173
871.897	155
871.948	157
871.998	172
872.049	152
872.099	156
872.15	157
872.201	165
872.251	152
872.302	150
872.352	156
872.403	168
872.453	161
872.504	155
872.555	162
872.605	144
872.656	163
872.706	159
872.757	151
872.808	160
872.858	169
872.909	162
872.959	149
873.01	154
873.06	165
873.111	154
873.162	152
873.212	154
873.263	159
873.313	157
873.364	166
873.415	155
873.465	171
873.516	159
873.566	155
873.617	158
873.667	157
873.718	148
873.769	148
873.819	153
873.87	165
873.92	153
873.971	155
874.021	157
874.072	158
874.123	151
874.173	143
874.224	158
874.274	151
874.325	159
874.375	149
874.426	158
874.477	156
874.527	150
874.578	144
874.628	154
874.679	154
874.729	160
874.78	159
874.83	160
874.881	155
874.932	150
874.982	145
875.033	156
875.083	154
875.134	139
875.184	148
875.235	146
875.285	142
875.336	155
875.387	148
875.437	150
875.488	153
875.538	159
875.589	157
875.639	155
875.69	149
875.74	152
875.791	145
875.841	145
875.892	154
875.943	144
875.993	160
876.044	163
876.094	152
876.145	148
876.195	134
876.246	155
876.296	151
876.347	148
876.397	156
876.448	153
876.499	156
876.549	144
876.6	140
876.65	149
876.701	158
876.751	143
876.802	136
876.852	151
876.903	150
876.953	136
877.004	136
877.054	157
877.105	148
877.155	145
877.206	145
877.257	141
877.307	148
877.358	149
877.408	149
877.459	142
877.509	149
877.56	149
877.61	145
877.661	157
877.711	155
877.762	140
877.812	142
877.863	148
877.913	147
877.964	131
878.014	140
878.065	142
878.115	143
878.166	142
878.216	138
878.267	142
878.318	150
878.368	158
878.419	139
878.469	136
878.52	152
878.57	157
878.621	141
878.671	152
878.722	157
878.772	154
878.823	136
878.873	147
878.924	152
878.974	149
879.025	143
879.075	146
879.126	138
879.176	144
879.227	140
879.277	149
879.328	141
879.378	147
879.429	126
879.479	143
879.53	145
879.58	147
879.631	134
879.681	145
879.732	127
879.782	145
879.833	139
879.883	135
879.934	150
879.984	132
880.035	136
880.085	137
880.136	146
880.186	134
880.237	144
880.287	127
880.338	138
880.388	134
880.439	150
880.489	147
880.54	136
880.59	139
880.641	136
880.691	137
880.742	140
880.792	132
880.842	135
880.893	138
880.943	131
880.994	143
881.044	133
881.095	133
881.145	145
881.196	133
881.246	131
881.297	142
881.347	147
881.398	142
881.448	135
881.499	125
881.549	131
881.6	136
881.65	120
881.701	128
881.751	134
881.802	131
881.852	129
881.902	137
881.953	131
882.003	143
882.054	128
882.104	152
882.155	128
882.205	128
882.256	129
882.306	133
882.357	128
882.407	130
882.458	121
882.508	142
882.559	137
882.609	132
882.659	132
882.71	125
882.76	127
882.811	130
882.861	131
882.912	127
882.962	135
883.013	129
883.063	135
883.114	133
883.164	139
883.214	133
883.265	124
883.315	131
883.366	133
883.416	127
883.467	123
883.517	129
883.568	133
883.618	126
883.669	123
883.719	127
883.769	133
883.82	136
883.87	128
883.921	131
883.971	123
884.022	136
884.072	116
884.123	136
884.173	125
884.223	124
884.274	125
884.324	134
884.375	133
884.425	126
884.476	137
884.526	126
884.577	129
884.627	117
884.677	129
884.728	129
884.778	120
884.829	131
884.879	115
884.93	131
884.98	132
885.03	120
885.081	111
885.131	130
885.182	130
885.232	124
885.283	122
885.333	124
885.383	130
885.434	133
885.484	119
885.535	123
885.585	135
885.635	125
885.686	112
885.736	122
885.787	120
885.837	128
885.888	123
885.938	133
885.988	140
886.039	122
886.089	115
886.14	131
886.19	115
886.241	129
886.291	124
886.341	116
886.392	128
886.442	121
886.493	121
886.543	118
886.593	121
886.644	127
886.694	123
886.745	125
886.795	137
886.845	123
886.896	130
886.946	129
886.997	137
887.047	134
887.097	119
887.148	116
887.198	121
887.249	125
887.299	116
887.349	123
887.4	132
887.45	131
887.501	124
887.551	114
887.602	115
887.652	127
887.702	108
887.753	121
887.803	118
887.853	125
887.904	114
887.954	125
888.005	124
888.055	128
888.105	119
888.156	112
888.206	118
888.257	114
888.307	120
888.357	113
888.408	131
888.458	130
888.509	117
888.559	111
888.609	107
888.66	125
888.71	123
888.76	118
888.811	118
888.861	114
888.912	119
888.962	102
889.012	102
889.063	116
889.113	117
889.163	116
889.214	127
889.264	112
889.315	111
889.365	109
889.415	110
889.466	119
889.516	113
889.566	103
889.617	130
889.667	120
889.718	116
889.768	111
889.818	122
889.869	117
889.919	115
889.969	106
890.02	116
890.07	114
890.12	118
890.171	109
890.221	104
890.272	113
890.322	111
890.372	115
890.423	134
890.473	113
890.523	116
890.574	112
890.624	111
890.674	113
890.725	112
890.775	115
890.826	123
890.876	108
890.926	121
890.977	115
891.027	112
891.077	110
891.128	121
891.178	108
891.228	120
891.279	111
891.329	113
891.379	120
891.43	107
891.48	118
891.53	111
891.581	106
891.631	110
891.681	94
891.732	116
891.782	107
891.832	113
891.883	111
891.933	114
891.983	109
892.034	107
892.084	104
892.134	110
892.185	109
892.235	99
892.286	109
892.336	107
892.386	111
892.437	117
892.487	96
892.537	110
892.587	99
892.638	111
892.688	114
892.738	107
892.789	116
892.839	108
892.889	108
892.94	107
892.99	99
893.04	104
893.091	112
893.141	100
893.191	113
893.242	104
893.292	107
893.342	122
893.393	97
893.443	100
893.493	118
893.544	112
893.594	104
893.644	112
893.695	103
893.745	105
893.795	95
893.846	100
893.896	107
893.946	102
893.996	96
894.047	101
894.097	97
894.147	99
894.198	98
894.248	97
894.298	109
894.349	104
894.399	97
894.449	104
894.5	109
894.55	109
894.6	98
894.65	112
894.701	98
894.751	94
894.801	90
894.852	105
894.902	106
894.952	107
895.003	106
895.053	106
895.103	110
895.153	113
895.204	99
895.254	106
895.304	96
895.355	107
895.405	98
895.455	102
895.505	99
895.556	95
895.606	97
895.656	106
895.707	104
895.757	104
895.807	89
895.858	99
895.908	117
895.958	109
896.008	98
896.059	104
896.109	105
896.159	99
896.21	102
896.26	103
896.31	95
896.36	100
896.411	98
896.461	103
896.511	90
896.561	102
896.612	90
896.662	103
896.712	102
896.763	101
896.813	97
896.863	97
896.913	99
896.964	105
897.014	99
897.064	95
897.115	103
897.165	98
897.215	92
897.265	105
897.316	97
897.366	93
897.416	91
897.466	100
897.517	107
897.567	99
897.617	100
897.667	94
897.718	105
897.768	91
897.818	101
897.868	96
897.919	103
897.969	98
898.019	95
898.069	95
898.12	91
898.17	105
898.22	92
898.27	92
898.321	96
898.371	94
898.421	88
898.471	98
898.522	104
898.572	101
898.622	102
898.672	95
898.723	98
898.773	100
898.823	94
898.873	96
898.924	100
898.974	99
899.024	79
899.074	95
899.125	94.5
899.175	94
899.225	91
899.275	96
899.326	98
899.376	95
899.426	92
899.476	85
899.527	101
899.577	93
899.627	96
899.677	91
899.728	95
899.778	98
899.828	89
899.878	89
899.928	102
899.979	94
