#Acq. time (s)=	3
#Accumulations=	2
#Range (nm)=	520...900
#Windows=	8
#Auto scanning=	Off
#Autofocus=	Off
#AutoExposure=	Off
#Spike filter=	Off
#Delay time (s)=	0
#Binning=	1
#Readout mode=	Signal
#DeNoise=	Off
#ICS correction=	Off
#Dark correction=	Off
#Inst. Process=	Off
#Detector temperature (°C)=	-59.98
#Instrument=	LabRAM HR Evol
#Detector=	Syncerity OE
#Objective=	x50_VIS
#Grating=	600 (500nm)
#ND Filter=	25%
#Laser=	514nm_Edge
#Hole=	199.981
#Range=	Visible
#StageXY=	Marzhauser
#StageZ=	Marzhauser
#X (µm)=	-9072.9
#Y (µm)=	12449.1
#Z (µm)=	-262.1
#Full time(mm:ss)=	1:32
#Project=	
#Sample=	
#Site=	
#Title=	PL_M8_280424
#Remark=	
#Date=	06.05.2024 16:52
#Acquired=	06.05.2024 16:52:47
520.044	48
520.097	52
520.149	53
520.201	47
520.254	45
520.306	49
520.359	57
520.411	44
520.464	56
520.516	52
520.569	56
520.621	44
520.674	49
520.726	51
520.778	52
520.831	49
520.883	54
520.936	56
520.988	53
521.041	54
521.093	49
521.146	52
521.198	48
521.25	55
521.303	68
521.355	59
521.408	53
521.46	54
521.513	53
521.565	56
521.617	54
521.67	51
521.722	49
521.775	55
521.827	60
521.88	45
521.932	52
521.984	48
522.037	50
522.089	48
522.142	54
522.194	45
522.247	57
522.299	46
522.352	51
522.404	51
522.456	53
522.509	51
522.561	49
522.614	52
522.666	51
522.719	47
522.771	46
522.823	53
522.876	49
522.928	53
522.981	56
523.033	51
523.086	51
523.138	51
523.19	48
523.243	50
523.295	52
523.348	53
523.4	50
523.453	59
523.505	52
523.557	51
523.61	55
523.662	62
523.715	54
523.767	48
523.82	49
523.872	53
523.924	52
523.977	53
524.029	57
524.082	50
524.134	52
524.186	53
524.239	56
524.291	58
524.344	59
524.396	55
524.449	51
524.501	58
524.553	57
524.606	56
524.658	62
524.711	56
524.763	47
524.815	47
524.868	51
524.92	49
524.973	52
525.025	51
525.078	48
525.13	59
525.182	62
525.235	58
525.287	48
525.34	52
525.392	61
525.444	61
525.497	48
525.549	62
525.602	60
525.654	59
525.706	56
525.759	54
525.811	55
525.864	40
525.916	51
525.969	55
526.021	56
526.073	55
526.126	55
526.178	56
526.231	49
526.283	53
526.335	45
526.388	51
526.44	54
526.493	50
526.545	53
526.597	48
526.65	50
526.702	51
526.755	49
526.807	49
526.859	56
526.912	58
526.964	56
527.017	54
527.069	55
527.121	51
527.174	46
527.226	58
527.279	48
527.331	53
527.383	50
527.436	51
527.488	55
527.54	54
527.593	64
527.645	60
527.698	70
527.75	54
527.802	57
527.855	55
527.907	53
527.96	45
528.012	54
528.064	41
528.117	57
528.169	54
528.222	52
528.274	53
528.326	52
528.379	59
528.431	46
528.484	53
528.536	50
528.588	61
528.641	53
528.693	51
528.745	57
528.798	54
528.85	50
528.903	49
528.955	57
529.007	48
529.06	56
529.112	51
529.164	52
529.217	55
529.269	49
529.322	48
529.374	54
529.426	49
529.479	56
529.531	58
529.584	63
529.636	51
529.688	57
529.741	53
529.793	58
529.845	54
529.898	53
529.95	56
530.003	51
530.055	48
530.107	54
530.16	56
530.212	54
530.264	58
530.317	56
530.369	60
530.422	60
530.474	53
530.526	49
530.579	51
530.631	56
530.683	54
530.736	58
530.788	50
530.841	56
530.893	54
530.945	58
530.998	54
531.05	55
531.102	58
531.155	55
531.207	55
531.259	62
531.312	63
531.364	63
531.417	60
531.469	61
531.521	58
531.574	63
531.626	58
531.678	58
531.731	54
531.783	62
531.835	59
531.888	65
531.94	60
531.992	59
532.045	65
532.097	61
532.15	57
532.202	65
532.254	58
532.307	55
532.359	54
532.411	57
532.464	66
532.516	68
532.568	63
532.621	60
532.673	61
532.726	66
532.778	59
532.83	53
532.883	64
532.935	55
532.987	63
533.04	61
533.092	64
533.144	60
533.197	64
533.249	58
533.301	66
533.354	63
533.406	69
533.458	69
533.511	64
533.563	72
533.615	65
533.668	64
533.72	69
533.773	67
533.825	58
533.877	64
533.93	59
533.982	76
534.034	65
534.087	66
534.139	68
534.191	69
534.244	64
534.296	69
534.348	63
534.401	73
534.453	79
534.505	61
534.558	84
534.61	76
534.662	72
534.715	73
534.767	80
534.819	80
534.872	84
534.924	83
534.976	80
535.029	81
535.081	83
535.133	93
535.186	86
535.238	97
535.29	82
535.343	79
535.395	91
535.447	86
535.5	77
535.552	93
535.604	83
535.657	81
535.709	74
535.761	77
535.814	86
535.866	81
535.918	80
535.971	71
536.023	77
536.075	77
536.128	73
536.18	74
536.232	71
536.285	69
536.337	75
536.389	75
536.442	70
536.494	78
536.546	78
536.599	63
536.651	78
536.703	78
536.755	73
536.808	69
536.86	67
536.912	73
536.965	74
537.017	74
537.069	69
537.122	70
537.174	72
537.226	70
537.279	65
537.331	70
537.383	79
537.436	70
537.488	67
537.54	73
537.593	69
537.645	76
537.697	76
537.75	68
537.802	70
537.854	68
537.906	65
537.959	77
538.011	69
538.063	71
538.116	75
538.168	75
538.22	75
538.273	66
538.325	66
538.377	77
538.43	69
538.482	75
538.534	72
538.586	77
538.639	68
538.691	64
538.743	74
538.796	74
538.848	68
538.9	75
538.953	67
539.005	75
539.057	81
539.109	71
539.162	74
539.214	80
539.266	81
539.319	66
539.371	69
539.423	65
539.476	70
539.528	68
539.58	71
539.633	79
539.685	71
539.737	70
539.789	66
539.842	70
539.894	65
539.946	70
539.999	75
540.051	79
540.103	78
540.155	80
540.208	78
540.26	76
540.312	74
540.365	74
540.417	73
540.469	83
540.521	84
540.574	69
540.626	80
540.678	71
540.731	79
540.783	68
540.835	78
540.888	79
540.94	81
540.992	76
541.044	85
541.097	76
541.149	79
541.201	76
541.254	69
541.306	83
541.358	83
541.41	87
541.463	70
541.515	75
541.567	81
541.62	77
541.672	78
541.724	77
541.776	82
541.829	79
541.881	81
541.933	84
541.985	72
542.038	84
542.09	79
542.142	81
542.195	80
542.247	70
542.299	82
542.351	88
542.404	83
542.456	74
542.508	85
542.56	77
542.613	79
542.665	88
542.717	81
542.77	86
542.822	83
542.874	79
542.926	85
542.979	89
543.031	86
543.083	87
543.135	83
543.188	85
543.24	85
543.292	86
543.344	95
543.397	89
543.449	90
543.501	89
543.554	92
543.606	85
543.658	88
543.71	95
543.763	94
543.815	90
543.867	94
543.919	93
543.972	90
544.024	104
544.076	92
544.128	90
544.181	93
544.233	92
544.285	89
544.337	99
544.39	91
544.442	96
544.494	95
544.547	83
544.599	90
544.651	91
544.703	100
544.755	89
544.808	96
544.86	98
544.912	92
544.965	95
545.017	88
545.069	93
545.121	101
545.174	99
545.226	97
545.278	93
545.33	95
545.383	102
545.435	92
545.487	92
545.539	100
545.591	90
545.644	105
545.696	89
545.748	102
545.8	102
545.853	98
545.905	96
545.957	96
546.009	93
546.062	105
546.114	96
546.166	104
546.218	104
546.271	93
546.323	95
546.375	104
546.427	107
546.48	108
546.532	106
546.584	107
546.636	105
546.689	105
546.741	95
546.793	103
546.845	98
546.898	110
546.95	109
547.002	101
547.054	108
547.106	103
547.159	110
547.211	122
547.263	120
547.315	112
547.368	108
547.42	124
547.472	100
547.524	116
547.577	115
547.629	124
547.681	108
547.733	117
547.785	116
547.838	120
547.89	127
547.942	128
547.994	120
548.047	119
548.099	118
548.151	133
548.203	116
548.255	124
548.308	112
548.36	119
548.412	121
548.464	119
548.517	116
548.569	120
548.621	122
548.673	112
548.725	125
548.778	131
548.83	117
548.882	130
548.934	125
548.987	121
549.039	134
549.091	126
549.143	126
549.195	119
549.248	131
549.3	126
549.352	127
549.404	132
549.456	132
549.509	137
549.561	131
549.613	132
549.665	129
549.718	136
549.77	130
549.822	133
549.874	151
549.926	140
549.979	122
550.031	140
550.083	137
550.135	150
550.187	150
550.24	147
550.292	146
550.344	150
550.396	160
550.448	158
550.501	153
550.553	164
550.605	161
550.657	157
550.709	156
550.762	162
550.814	163
550.866	163
550.918	166
550.97	175
551.023	170
551.075	184
551.127	176
551.179	196
551.231	170
551.284	176
551.336	187
551.388	185
551.44	195
551.492	210
551.545	216
551.597	219
551.649	196
551.701	215
551.753	238
551.806	254
551.858	250
551.91	275
551.962	282
552.014	303
552.067	334
552.119	370
552.171	400
552.223	465
552.275	546
552.327	659
552.38	848
552.432	1319
552.484	2794
552.536	6391
552.588	12539
552.641	20675
552.693	30883
552.745	39401
552.797	24031
552.849	9062
552.901	3118
552.954	1492
553.006	959
553.058	707
553.11	573
553.162	474
553.215	428
553.267	386
553.319	348
553.371	329
553.423	292
553.475	289
553.528	268
553.58	266
553.632	248
553.684	245
553.736	231
553.788	241
553.841	220
553.893	226
553.945	231
553.997	204
554.049	202
554.102	214
554.154	191
554.206	206
554.258	196
554.31	203
554.362	190
554.414	209
554.467	198
554.519	200
554.571	189
554.623	188
554.675	205
554.727	195
554.78	196
554.832	195
554.884	188
554.936	189
554.988	200
555.04	198
555.093	180
555.145	177
555.197	193
555.249	196
555.301	197
555.353	196
555.406	185
555.458	201
555.51	198
555.562	198
555.614	189
555.666	195
555.719	214
555.771	201
555.823	194
555.875	203
555.927	198
555.979	201
556.031	194
556.084	211
556.136	193
556.188	186
556.24	210
556.292	193
556.344	206
556.396	201
556.449	211
556.501	209
556.553	197
556.605	199
556.657	211
556.709	208
556.762	211
556.814	212
556.866	208
556.918	210
556.97	203
557.022	215
557.074	231
557.127	212
557.179	209
557.231	217
557.283	222
557.335	214
557.387	225
557.439	221
557.492	222
557.544	213
557.596	230
557.648	203
557.7	235
557.752	221
557.804	228
557.856	235
557.909	231
557.961	223
558.013	221
558.065	229
558.117	228
558.169	232
558.221	219
558.273	226
558.326	230
558.378	228
558.43	211
558.482	228
558.534	232
558.586	224
558.638	226
558.691	239
558.743	226
558.795	239
558.847	234
558.899	234
558.951	251
559.003	233
559.055	238
559.108	236
559.16	236
559.212	246
559.264	239
559.316	238
559.368	247
559.42	248
559.472	247
559.525	255
559.577	246
559.629	237
559.681	239
559.733	242
559.785	246
559.837	240
559.889	250
559.941	269
559.994	247
560.046	251
560.098	245
560.15	256
560.202	260
560.254	255
560.306	268
560.358	255
560.41	262
560.463	260
560.515	268
560.567	281
560.619	255
560.671	272
560.723	286
560.775	288
560.827	278
560.879	277
560.932	272
560.984	273
561.036	286
561.088	284
561.14	283
561.192	279
561.244	283
561.296	292
561.348	299
561.4	292
561.453	307
561.505	283
561.557	278
561.609	284
561.661	291
561.713	298
561.765	295
561.817	313
561.869	293
561.921	299
561.974	295
562.026	291
562.078	309
562.13	293
562.182	307
562.234	303
562.286	311
562.338	316
562.39	316
562.442	304
562.494	338
562.547	305
562.599	298
562.651	309
562.703	314
562.755	332
562.807	311
562.859	311
562.911	332
562.963	326
563.015	328
563.067	327
563.12	335
563.172	323
563.224	341
563.276	336
563.328	333
563.38	349
563.432	344
563.484	347
563.536	352
563.588	343
563.64	360
563.692	353
563.744	354
563.797	342
563.849	361
563.901	343
563.953	367
564.005	375
564.057	368
564.109	376
564.161	386
564.213	368
564.265	391
564.317	367
564.369	387
564.421	384
564.474	381
564.526	354
564.578	373
564.63	381
564.682	392
564.734	375
564.786	373
564.838	376
564.89	370
564.942	375
564.994	386
565.046	376
565.098	365
565.15	384
565.202	398
565.255	396
565.307	385
565.359	379
565.411	387
565.463	386
565.515	385
565.567	401
565.619	392
565.671	394
565.723	380
565.775	382
565.827	388
565.879	389
565.931	413
565.983	391
566.035	415
566.087	396
566.139	398
566.192	415
566.244	410
566.296	418
566.348	416
566.4	416
566.452	415
566.504	397
566.556	430
566.608	434
566.66	417
566.712	419
566.764	405
566.816	429
566.868	431
566.92	428
566.972	421
567.024	413
567.076	442
567.128	395
567.18	434
567.232	432
567.285	426
567.337	439
567.389	432
567.441	439
567.493	450
567.545	450
567.597	459
567.649	446
567.701	440
567.753	440
567.805	473
567.857	433
567.909	454
567.961	443
568.013	452
568.065	474
568.117	454.98
568.169	450.96
568.221	456.858
568.273	460.807
568.325	463.359
568.377	465.876
568.429	463.261
568.481	476.425
568.533	484.094
568.585	469.141
568.637	472.944
568.69	486.685
568.742	489.101
568.794	465.796
568.846	493.861
568.898	483.125
568.95	485.404
569.002	474.742
569.054	492.048
569.106	485.113
569.158	491.08
569.21	493.623
569.262	490.354
569.314	506.706
569.366	504.893
569.418	491.157
569.47	504.332
569.522	486.334
569.574	511.38
569.626	505.825
569.678	525.357
569.73	591.931
569.782	572.48
569.834	520.398
569.886	528.756
569.938	524.956
569.99	534.773
570.042	524.355
570.094	532.723
570.146	536.592
570.198	534.897
570.25	538.026
570.302	538.405
570.354	541.714
570.406	546.78
570.458	548.565
570.51	543.116
570.562	565.562
570.614	558.652
570.666	568.509
570.718	579.729
570.77	570.323
570.822	569.198
570.874	585.9
570.926	572.001
570.978	579.933
571.03	586.954
571.082	587.538
571.134	595.196
571.186	599.795
571.238	607.513
571.29	609.695
571.342	620.372
571.394	627.774
571.446	633.551
571.498	632.978
571.55	654.919
571.602	650.012
571.654	658.3
571.706	650.003
571.758	675.958
571.81	679.041
571.862	674.829
571.914	683.1
571.966	685.155
572.018	681.953
572.07	697.575
572.122	704.85
572.174	705.946
572.226	705.978
572.278	721.882
572.33	739.316
572.382	743.074
572.434	758.415
572.486	736.776
572.538	749.172
572.59	773.422
572.642	765.945
572.694	754.419
572.746	759.766
572.798	793.368
572.85	819.511
572.902	805.15
572.954	815.651
573.006	820.922
573.058	845.502
573.11	844.695
573.162	859.555
573.214	852.159
573.266	848.042
573.312	889
573.364	894
573.416	918
573.469	933
573.521	932
573.573	960
573.625	955
573.677	1002
573.73	985
573.782	1021
573.834	1007
573.886	1050
573.938	1047
573.991	1087
574.043	1086
574.095	1089
574.147	1135
574.199	1138
574.252	1156
574.304	1181
574.356	1191
574.408	1211
574.46	1213
574.513	1265
574.565	1291
574.617	1320
574.669	1319
574.721	1335
574.774	1354
574.826	1407
574.878	1439
574.93	1440
574.982	1452
575.035	1487
575.087	1504
575.139	1528
575.191	1569
575.243	1603
575.296	1558
575.348	1586
575.4	1633
575.452	1682
575.504	1665
575.556	1646
575.609	1674
575.661	1722
575.713	1730
575.765	1708
575.817	1739
575.87	1747
575.922	1751
575.974	1743
576.026	1755
576.078	1758
576.131	1776
576.183	1767
576.235	1781
576.287	1773
576.339	1704
576.391	1726
576.444	1714
576.496	1716
576.548	1675
576.6	1689
576.652	1631
576.705	1654
576.757	1634
576.809	1608
576.861	1617
576.913	1626
576.965	1554
577.018	1609
577.07	1540
577.122	1522
577.174	1554
577.226	1511
577.279	1497
577.331	1454
577.383	1436
577.435	1469
577.487	1436
577.539	1370
577.592	1395
577.644	1370
577.696	1364
577.748	1361
577.8	1338
577.852	1305
577.905	1307
577.957	1283
578.009	1268
578.061	1252
578.113	1237
578.165	1269
578.218	1207
578.27	1217
578.322	1210
578.374	1197
578.426	1202
578.478	1188
578.531	1169
578.583	1204
578.635	1180
578.687	1153
578.739	1165
578.791	1128
578.844	1134
578.896	1137
578.948	1111
579	1154
579.052	1128
579.104	1122
579.157	1125
579.209	1128
579.261	1122
579.313	1091
579.365	1088
579.417	1097
579.47	1083
579.522	1113
579.574	1055
579.626	1125
579.678	1086
579.73	1084
579.782	1096
579.835	1104
579.887	1098
579.939	1081
579.991	1106
580.043	1104
580.095	1120
580.148	1110
580.2	1106
580.252	1097
580.304	1094
580.356	1078
580.408	1117
580.46	1102
580.513	1108
580.565	1107
580.617	1132
580.669	1099
580.721	1085
580.773	1125
580.826	1102
580.878	1116
580.93	1122
580.982	1131
581.034	1143
581.086	1112
581.138	1110
581.191	1133
581.243	1088
581.295	1112
581.347	1117
581.399	1158
581.451	1118
581.503	1140
581.556	1111
581.608	1165
581.66	1155
581.712	1116
581.764	1166
581.816	1127
581.868	1149
581.92	1150
581.973	1156
582.025	1131
582.077	1154
582.129	1179
582.181	1131
582.233	1123
582.285	1164
582.338	1144
582.39	1169
582.442	1138
582.494	1137
582.546	1141
582.598	1190
582.65	1143
582.703	1164
582.755	1169
582.807	1173
582.859	1223
582.911	1207
582.963	1171
583.015	1202
583.067	1201
583.12	1183
583.172	1220
583.224	1197
583.276	1197
583.328	1182
583.38	1228
583.432	1234
583.484	1254
583.537	1219
583.589	1205
583.641	1230
583.693	1271
583.745	1261
583.797	1247
583.849	1284
583.901	1253
583.953	1254
584.006	1272
584.058	1263
584.11	1294
584.162	1280
584.214	1274
584.266	1304
584.318	1290
584.37	1343
584.423	1304
584.475	1320
584.527	1327
584.579	1298
584.631	1320
584.683	1350
584.735	1332
584.787	1358
584.839	1355
584.892	1354
584.944	1372
584.996	1390
585.048	1379
585.1	1367
585.152	1408
585.204	1379
585.256	1382
585.308	1384
585.361	1400
585.413	1427
585.465	1378
585.517	1438
585.569	1451
585.621	1456
585.673	1401
585.725	1401
585.777	1428
585.83	1457
585.882	1442
585.934	1451
585.986	1441
586.038	1465
586.09	1478
586.142	1446
586.194	1477
586.246	1470
586.298	1476
586.351	1487
586.403	1493
586.455	1463
586.507	1475
586.559	1517
586.611	1469
586.663	1507
586.715	1505
586.767	1492
586.819	1499
586.872	1545
586.924	1517
586.976	1496
587.028	1525
587.08	1513
587.132	1488
587.184	1561
587.236	1566
587.288	1573
587.34	1525
587.392	1506
587.445	1525
587.497	1550
587.549	1573
587.601	1555
587.653	1565
587.705	1538
587.757	1531
587.809	1536
587.861	1562
587.913	1563
587.965	1529
588.018	1557
588.07	1628
588.122	1594
588.174	1585
588.226	1610
588.278	1594
588.33	1594
588.382	1553
588.434	1595
588.486	1586
588.538	1582
588.59	1561
588.642	1610
588.695	1575
588.747	1599
588.799	1613
588.851	1626
588.903	1606
588.955	1582
589.007	1599
589.059	1639
589.111	1591
589.163	1631
589.215	1660
589.267	1642
589.319	1631
589.372	1655
589.424	1627
589.476	1650
589.528	1664
589.58	1654
589.632	1677
589.684	1647
589.736	1655
589.788	1670
589.84	1644
589.892	1630
589.944	1639
589.996	1625
590.048	1650
590.101	1642
590.153	1637
590.205	1674
590.257	1636
590.309	1658
590.361	1626
590.413	1646
590.465	1624
590.517	1622
590.569	1620
590.621	1599
590.673	1605
590.725	1636
590.777	1640
590.829	1639
590.881	1619
590.933	1630
590.986	1626
591.038	1639
591.09	1590
591.142	1579
591.194	1627
591.246	1593
591.298	1601
591.35	1593
591.402	1601
591.454	1637
591.506	1589
591.558	1609
591.61	1584
591.662	1584
591.714	1596
591.766	1583
591.818	1611
591.87	1598
591.923	1564
591.975	1592
592.027	1518
592.079	1545
592.131	1590
592.183	1547
592.235	1550
592.287	1552
592.339	1567
592.391	1569
592.443	1585
592.495	1572
592.547	1574
592.599	1565
592.651	1569
592.703	1538
592.755	1551
592.807	1575
592.859	1559
592.911	1558
592.963	1582
593.015	1564
593.068	1560
593.12	1564
593.172	1554
593.224	1557
593.276	1558
593.328	1532
593.38	1496
593.432	1571
593.484	1592
593.536	1582
593.588	1561
593.64	1552
593.692	1603
593.744	1539
593.796	1531
593.848	1572
593.9	1571
593.952	1575
594.004	1545
594.056	1595
594.108	1565
594.16	1560
594.212	1559
594.264	1583
594.316	1573
594.368	1577
594.42	1595
594.472	1556
594.524	1580
594.576	1603
594.628	1581
594.68	1616
594.732	1624
594.784	1617
594.837	1592
594.889	1610
594.941	1621
594.993	1616
595.045	1589
595.097	1613
595.149	1586
595.201	1643
595.253	1636
595.305	1620
595.357	1604
595.409	1604
595.461	1600
595.513	1631
595.565	1652
595.617	1632
595.669	1637
595.721	1595
595.773	1662
595.825	1655
595.877	1639
595.929	1639
595.981	1667
596.033	1670
596.085	1677
596.137	1675
596.189	1659
596.241	1668
596.293	1669
596.345	1698
596.397	1708
596.449	1677
596.501	1711
596.553	1713
596.605	1728
596.657	1717
596.709	1779
596.761	1738
596.813	1750
596.865	1743
596.917	1733
596.969	1749
597.021	1735
597.073	1742
597.125	1740
597.177	1708
597.229	1700
597.281	1742
597.333	1685
597.385	1754
597.437	1757
597.489	1739
597.541	1703
597.593	1745
597.645	1739
597.697	1762
597.749	1715
597.801	1724
597.853	1761
597.905	1787
597.957	1722
598.009	1742
598.061	1741
598.113	1735
598.165	1733
598.217	1750
598.269	1735
598.321	1781
598.373	1742
598.425	1760
598.477	1737
598.529	1755
598.581	1775
598.633	1775
598.685	1765
598.737	1770
598.789	1738
598.841	1768
598.893	1762
598.945	1740
598.997	1749
599.049	1773
599.101	1768
599.153	1763
599.205	1760
599.257	1796
599.309	1812
599.361	1807
599.413	1789
599.465	1782
599.517	1783
599.569	1790
599.62	1769
599.672	1791
599.724	1777
599.776	1780
599.828	1780
599.88	1789
599.932	1779
599.984	1773
600.036	1787
600.088	1763
600.14	1822
600.192	1782
600.244	1784
600.296	1776
600.348	1797
600.4	1804
600.452	1748
600.504	1772
600.556	1772
600.608	1791
600.66	1801
600.712	1791
600.764	1819
600.816	1799
600.868	1812
600.92	1777
600.972	1799
601.024	1813
601.076	1770
601.128	1834
601.18	1798
601.232	1809
601.284	1813
601.335	1801
601.387	1808
601.439	1795
601.491	1821
601.543	1766
601.595	1807
601.647	1798
601.699	1777
601.751	1833
601.803	1807
601.855	1806
601.907	1814
601.959	1796
602.011	1790
602.063	1824
602.115	1796
602.167	1808
602.219	1796
602.271	1806
602.323	1798
602.375	1798
602.427	1830
602.478	1842
602.53	1821
602.582	1787
602.634	1817
602.686	1824
602.738	1859
602.79	1806
602.842	1835
602.894	1829
602.946	1847
602.998	1823
603.05	1853
603.102	1853
603.154	1846
603.206	1861
603.258	1837
603.31	1822
603.362	1845
603.413	1805
603.465	1861
603.517	1852
603.569	1830
603.621	1873
603.673	1826
603.725	1833
603.777	1852
603.829	1821
603.881	1832
603.933	1840
603.985	1845
604.037	1858
604.089	1868
604.141	1869
604.193	1830
604.244	1890
604.296	1850
604.348	1852
604.4	1861
604.452	1880
604.504	1860
604.556	1887
604.608	1884
604.66	1865
604.712	1852
604.764	1906
604.816	1884
604.868	1874
604.92	1872
604.971	1864
605.023	1887
605.075	1904
605.127	1843
605.179	1887
605.231	1866
605.283	1860
605.335	1875
605.387	1890
605.439	1889
605.491	1883
605.543	1911
605.594	1859
605.646	1911
605.698	1847
605.75	1870
605.802	1911
605.854	1912
605.906	1885
605.958	1887
606.01	1891
606.062	1878
606.114	1867
606.166	1882
606.217	1883
606.269	1899
606.321	1850
606.373	1866
606.425	1893
606.477	1885
606.529	1872
606.581	1869
606.633	1902
606.685	1886
606.737	1872
606.789	1914
606.84	1837
606.892	1879
606.944	1889
606.996	1869
607.048	1872
607.1	1936
607.152	1873
607.204	1878
607.256	1911
607.308	1906
607.359	1848
607.411	1930
607.463	1890
607.515	1898
607.567	1899
607.619	1898
607.671	1913
607.723	1889
607.775	1875
607.827	1922
607.878	1919
607.93	1955
607.982	1944
608.034	1936
608.086	1890
608.138	1901
608.19	1893
608.242	1949
608.294	1928
608.345	1918
608.397	1922
608.449	1925
608.501	1965
608.553	1953
608.605	1895
608.657	1984
608.709	1928
608.761	1978
608.812	1949
608.864	1956
608.916	2012
608.968	1938
609.02	1945
609.072	1972
609.124	1980
609.176	1974
609.228	1976
609.279	1984
609.331	1976
609.383	1950
609.435	1973
609.487	1996
609.539	1976
609.591	1990
609.643	1987
609.694	1998
609.746	1985
609.798	2005
609.85	1998
609.902	2020
609.954	2042
610.006	1998
610.058	2002
610.109	2024
610.161	2020
610.213	2028
610.265	2011
610.317	2016
610.369	2014
610.421	2028
610.473	2013
610.524	2035
610.576	2017
610.628	2025
610.68	2043
610.732	1985
610.784	2039
610.836	2053
610.887	2014
610.939	2050
610.991	2077
611.043	2032
611.095	2067
611.147	2083
611.199	2016
611.25	2088
611.302	2053
611.354	2006
611.406	2050
611.458	2078
611.51	2055
611.562	2036
611.614	2051
611.665	2061
611.717	2069
611.769	2039
611.821	2078
611.873	2091
611.925	2084
611.977	2093
612.028	2094
612.08	2074
612.132	2095
612.184	2077
612.236	2069
612.288	2108
612.339	2092
612.391	2081
612.443	2071
612.495	2126
612.547	2126
612.599	2122
612.651	2067
612.702	2127
612.754	2111
612.806	2150
612.858	2124
612.91	2135
612.962	2158
613.013	2120
613.065	2152
613.117	2152
613.169	2147
613.221	2177
613.273	2158
613.325	2134
613.376	2143
613.428	2137
613.48	2121
613.532	2151
613.584	2158
613.635	2171
613.687	2179
613.739	2205
613.791	2160
613.843	2184
613.895	2208
613.947	2201
613.998	2220
614.05	2175
614.102	2235
614.154	2212
614.206	2176
614.258	2208
614.309	2272
614.361	2248
614.413	2177
614.465	2201
614.517	2231
614.568	2221
614.62	2259
614.672	2265
614.724	2236
614.776	2302
614.828	2280
614.879	2247
614.931	2269
614.983	2330
615.035	2290
615.087	2267
615.139	2305
615.19	2258
615.242	2300
615.294	2299
615.346	2298
615.398	2318
615.449	2283
615.501	2304
615.553	2322
615.605	2299
615.657	2355
615.709	2285
615.76	2349
615.812	2358
615.864	2358
615.916	2320
615.968	2362
616.019	2345.42
616.071	2347.33
616.123	2348.83
616.175	2346.8
616.227	2323.25
616.278	2343
616.33	2358.38
616.382	2370.39
616.434	2371.43
616.486	2334.56
616.537	2370.3
616.589	2390.37
616.641	2371.62
616.693	2372.67
616.745	2378.61
616.797	2387.16
616.848	2390.93
616.9	2420.97
616.952	2371.57
617.004	2402.22
617.056	2409.83
617.107	2412.47
617.159	2379.97
617.211	2441.4
617.263	2412.49
617.315	2410.37
617.366	2427.17
617.418	2432.83
617.47	2420.56
617.522	2417.55
617.573	2402.85
617.625	2445.99
617.677	2419.83
617.729	2441.5
617.781	2409.55
617.832	2448.73
617.884	2435.72
617.936	2449.83
617.988	2451.73
618.04	2441.08
618.091	2446.95
618.143	2457.02
618.195	2440.63
618.247	2436.1
618.299	2445.42
618.35	2469.86
618.402	2464.23
618.454	2470.04
618.506	2472.88
618.557	2481.97
618.609	2458.64
618.661	2461.25
618.713	2513.97
618.765	2498.78
618.816	2491.79
618.868	2485.75
618.92	2485.6
618.972	2511.63
619.023	2516.95
619.075	2483.17
619.127	2501.86
619.179	2507.25
619.231	2486.43
619.282	2526.89
619.334	2503.38
619.386	2509.86
619.438	2533.74
619.49	2548.08
619.541	2528.25
619.593	2532.17
619.645	2558.06
619.697	2563.55
619.748	2573.94
619.8	2568.9
619.852	2563.87
619.904	2567.61
619.955	2562.46
620.007	2559.15
620.059	2556.41
620.111	2544.8
620.162	2576.88
620.214	2587.7
620.266	2569.91
620.318	2570.97
620.37	2548.5
620.421	2548.87
620.473	2555.03
620.525	2564.21
620.577	2576.18
620.628	2586.11
620.68	2579.8
620.732	2587.02
620.784	2595.87
620.835	2590.53
620.887	2576.41
620.939	2570.23
620.991	2605.98
621.042	2609.82
621.094	2592
621.146	2594.56
621.198	2600.93
621.249	2590.14
621.269	2581
621.321	2598
621.373	2606
621.425	2603
621.477	2621
621.529	2613
621.581	2612
621.633	2645
621.685	2592
621.737	2604
621.789	2649
621.841	2611
621.893	2641
621.945	2620
621.997	2626
622.049	2627
622.101	2614
622.153	2654
622.205	2643
622.257	2634
622.309	2626
622.361	2638
622.413	2614
622.465	2654
622.517	2660
622.569	2635
622.621	2641
622.673	2633
622.725	2592
622.776	2618
622.828	2627
622.88	2633
622.932	2643
622.984	2671
623.036	2656
623.088	2657
623.14	2687
623.192	2688
623.244	2658
623.296	2687
623.348	2638
623.4	2679
623.452	2684
623.504	2676
623.556	2658
623.608	2685
623.66	2667
623.712	2632
623.764	2638
623.816	2737
623.868	2668
623.92	2686
623.972	2658
624.024	2682
624.076	2703
624.128	2700
624.18	2705
624.232	2672
624.284	2692
624.336	2662
624.388	2633
624.44	2655
624.492	2696
624.544	2729
624.596	2689
624.648	2720
624.699	2707
624.751	2723
624.803	2694
624.855	2736
624.907	2740
624.959	2739
625.011	2741
625.063	2702
625.115	2754
625.167	2739
625.219	2739
625.271	2756
625.323	2745
625.375	2763
625.427	2719
625.479	2750
625.531	2757
625.583	2771
625.635	2793
625.687	2773
625.739	2752
625.791	2745
625.843	2748
625.895	2806
625.946	2728
625.998	2751
626.05	2762
626.102	2746
626.154	2776
626.206	2809
626.258	2792
626.31	2844
626.362	2808
626.414	2796
626.466	2859
626.518	2841
626.57	2773
626.622	2848
626.674	2775
626.726	2775
626.778	2783
626.83	2801
626.882	2817
626.934	2838
626.985	2826
627.037	2830
627.089	2859
627.141	2864
627.193	2893
627.245	2838
627.297	2791
627.349	2869
627.401	2860
627.453	2871
627.505	2860
627.557	2853
627.609	2826
627.661	2865
627.713	2848
627.765	2884
627.817	2867
627.868	2901
627.92	2882
627.972	2902
628.024	2861
628.076	2873
628.128	2904
628.18	2896
628.232	2918
628.284	2936
628.336	2933
628.388	2968
628.44	2939
628.492	2960
628.544	2924
628.596	2916
628.647	2921
628.699	2952
628.751	2964
628.803	2934
628.855	2977
628.907	2927
628.959	2950
629.011	3012
629.063	2915
629.115	2928
629.167	2953
629.219	2938
629.271	2993
629.322	2987
629.374	2992
629.426	2990
629.478	2949
629.53	3021
629.582	2989
629.634	3020
629.686	3025
629.738	3031
629.79	2998
629.842	3024
629.894	3038
629.945	3047
629.997	2999
630.049	3008
630.101	3030
630.153	3091
630.205	3089
630.257	3005
630.309	3025
630.361	3072
630.413	3059
630.465	3137
630.517	3059
630.568	3045
630.62	3107
630.672	3068
630.724	3131
630.776	3137
630.828	3063
630.88	3108
630.932	3158
630.984	3098
631.036	3122
631.088	3127
631.14	3123
631.191	3135
631.243	3107
631.295	3150
631.347	3174
631.399	3149
631.451	3132
631.503	3110
631.555	3194
631.607	3172
631.659	3142
631.71	3141
631.762	3185
631.814	3128
631.866	3183
631.918	3187
631.97	3221
632.022	3233
632.074	3221
632.126	3224
632.178	3202
632.229	3226
632.281	3246
632.333	3228
632.385	3272
632.437	3256
632.489	3213
632.541	3232
632.593	3293
632.645	3275
632.696	3267
632.748	3308
632.8	3302
632.852	3249
632.904	3341
632.956	3310
633.008	3345
633.06	3341
633.112	3349
633.164	3322
633.215	3318
633.267	3366
633.319	3421
633.371	3339
633.423	3344
633.475	3318
633.527	3402
633.579	3379
633.63	3375
633.682	3375
633.734	3399
633.786	3383
633.838	3460
633.89	3424
633.942	3412
633.994	3444
634.046	3402
634.097	3415
634.149	3484
634.201	3411
634.253	3471
634.305	3502
634.357	3469
634.409	3487
634.461	3535
634.512	3526
634.564	3522
634.616	3498
634.668	3548
634.72	3514
634.772	3603
634.824	3539
634.876	3629
634.927	3548
634.979	3541
635.031	3587
635.083	3633
635.135	3597
635.187	3608
635.239	3680
635.291	3650
635.342	3618
635.394	3704
635.446	3669
635.498	3679
635.55	3731
635.602	3722
635.654	3701
635.705	3726
635.757	3802
635.809	3791
635.861	3801
635.913	3839
635.965	3829
636.017	3865
636.068	3888
636.12	3889
636.172	3901
636.224	3935
636.276	3963
636.328	3959
636.38	3970
636.431	3973
636.483	4101
636.535	4100
636.587	4115
636.639	4079
636.691	4192
636.743	4187
636.794	4295
636.846	4335
636.898	4272
636.95	4403
637.002	4404
637.054	4382
637.106	4493
637.157	4514
637.209	4582
637.261	4663
637.313	4638
637.365	4695
637.417	4730
637.469	4779
637.52	4784
637.572	4827
637.624	4955
637.676	5004
637.728	5076
637.78	5100
637.831	5126
637.883	5146
637.935	5205
637.987	5291
638.039	5308
638.091	5314
638.143	5319
638.194	5356
638.246	5397
638.298	5373
638.35	5360
638.402	5424
638.454	5425
638.505	5459
638.557	5421
638.609	5442
638.661	5408
638.713	5479
638.765	5390
638.816	5389
638.868	5426
638.92	5413
638.972	5382
639.024	5361
639.076	5297
639.127	5345
639.179	5248
639.231	5260
639.283	5174
639.335	5233
639.387	5182
639.438	5135
639.49	5107
639.542	5067
639.594	5045
639.646	5012
639.698	5032
639.749	4955
639.801	4836
639.853	4955
639.905	4910
639.957	4913
640.008	4830
640.06	4851
640.112	4740
640.164	4790
640.216	4723
640.268	4734
640.319	4691
640.371	4672
640.423	4703
640.475	4697
640.527	4660
640.578	4614
640.63	4593
640.682	4582
640.734	4590
640.786	4595
640.838	4517
640.889	4543
640.941	4548
640.993	4490
641.045	4562
641.097	4558
641.148	4460
641.2	4548
641.252	4524
641.304	4493
641.356	4455
641.408	4457
641.459	4487
641.511	4509
641.563	4453
641.615	4513
641.667	4459
641.718	4458
641.77	4465
641.822	4388
641.874	4433
641.926	4379
641.977	4414
642.029	4407
642.081	4411
642.133	4444
642.185	4410
642.236	4451
642.288	4391
642.34	4430
642.392	4420
642.444	4435
642.495	4485
642.547	4493
642.599	4421
642.651	4441
642.703	4502
642.754	4350
642.806	4411
642.858	4410
642.91	4426
642.962	4449
643.013	4427
643.065	4402
643.117	4432
643.169	4449
643.221	4442
643.272	4379
643.324	4403
643.376	4467
643.428	4459
643.479	4483
643.531	4492
643.583	4473
643.635	4493
643.687	4503
643.738	4501
643.79	4472
643.842	4491
643.894	4451
643.946	4498
643.997	4496
644.049	4511
644.101	4508
644.153	4502
644.205	4547
644.256	4512
644.308	4512
644.36	4470
644.412	4464
644.463	4505
644.515	4493
644.567	4505
644.619	4580
644.671	4523
644.722	4574
644.774	4480
644.826	4561
644.878	4566
644.929	4589
644.981	4553
645.033	4517
645.085	4584
645.136	4526
645.188	4592
645.24	4586
645.292	4596
645.344	4509
645.395	4572
645.447	4549
645.499	4551
645.551	4603
645.602	4593
645.654	4608
645.706	4627
645.758	4579
645.81	4568
645.861	4594
645.913	4588
645.965	4580
646.017	4635
646.068	4563
646.12	4636
646.172	4656
646.224	4606
646.275	4557
646.327	4619
646.379	4632
646.431	4671
646.482	4639
646.534	4607
646.586	4596
646.638	4683
646.689	4668
646.741	4638
646.793	4615
646.845	4701
646.896	4765
646.948	4682
647	4727
647.052	4637
647.104	4709
647.155	4705
647.207	4670
647.259	4688
647.31	4700
647.362	4737
647.414	4743
647.466	4734
647.518	4726
647.569	4720
647.621	4736
647.673	4735
647.724	4774
647.776	4754
647.828	4689
647.88	4840
647.931	4806
647.983	4787
648.035	4777
648.087	4764
648.138	4800
648.19	4809
648.242	4768
648.294	4802
648.345	4848
648.397	4775
648.449	4827
648.501	4853
648.552	4846
648.604	4867
648.656	4894
648.708	4897
648.759	4874
648.811	4879
648.863	4914
648.915	4900
648.966	4903
649.018	4858
649.07	4842
649.121	4895
649.173	4915
649.225	4891
649.277	4814
649.328	4864
649.38	5005
649.432	4977
649.484	4981
649.535	4956
649.587	4979
649.639	4917
649.69	4995
649.742	5012
649.794	5065
649.846	5037
649.897	5044
649.949	5013
650.001	5029
650.053	4959
650.104	4941
650.156	5086
650.208	5036
650.259	5058
650.311	5069
650.363	4983
650.415	4989
650.466	5097
650.518	5043
650.57	5118
650.621	5143
650.673	5051
650.725	5103
650.777	5101
650.828	5133
650.88	5170
650.932	5130
650.984	5147
651.035	5191
651.087	5117
651.139	5148
651.19	5205
651.242	5143
651.294	5137
651.345	5188
651.397	5176
651.449	5261
651.501	5199
651.552	5245
651.604	5206
651.656	5233
651.707	5206
651.759	5265
651.811	5286
651.863	5241
651.914	5243
651.966	5276
652.018	5273
652.069	5334
652.121	5284
652.173	5307
652.224	5298
652.276	5298
652.328	5318
652.38	5308
652.431	5360
652.483	5344
652.535	5373
652.586	5374
652.638	5320
652.69	5393
652.741	5410
652.793	5398
652.845	5408
652.897	5405
652.948	5371
653	5409
653.052	5448
653.103	5435
653.155	5458
653.207	5434
653.258	5418
653.31	5454
653.362	5494
653.413	5458
653.465	5544
653.517	5517
653.568	5537
653.62	5550
653.672	5544
653.724	5606
653.775	5581
653.827	5597
653.879	5499
653.93	5568
653.982	5573
654.034	5640
654.085	5611
654.137	5595
654.189	5737
654.24	5745
654.292	5608
654.344	5698
654.395	5792
654.447	5682
654.499	5696
654.55	5704
654.602	5706
654.654	5715
654.705	5715
654.757	5787
654.809	5757
654.86	5777
654.912	5778
654.964	5768
655.016	5768
655.067	5850
655.119	5895
655.17	5868
655.222	5810
655.274	5799
655.326	5893
655.377	5921
655.429	5923
655.481	5929
655.532	5951
655.584	6000
655.635	6006
655.687	5966
655.739	6024
655.79	5952
655.842	5996
655.894	6029
655.945	6030
655.997	6024
656.049	6015
656.1	6061
656.152	6100
656.204	6181
656.255	6093
656.307	6161
656.359	6092
656.41	6193
656.462	6144
656.514	6203
656.565	6164
656.617	6247
656.669	6289
656.72	6235
656.772	6258
656.824	6300
656.875	6249
656.927	6249
656.979	6371
657.03	6364
657.082	6306
657.134	6295
657.185	6364
657.237	6346
657.288	6315
657.34	6387
657.392	6339
657.443	6399
657.495	6404
657.547	6462
657.598	6454
657.65	6437
657.702	6448
657.753	6516
657.805	6468
657.857	6493
657.908	6505
657.96	6485
658.011	6532
658.063	6552
658.115	6470
658.166	6526
658.218	6530
658.27	6688
658.321	6556
658.373	6644
658.425	6579
658.476	6560
658.528	6651
658.579	6642
658.631	6642
658.683	6630
658.734	6715
658.786	6619
658.838	6631
658.889	6659
658.941	6699
658.992	6719
659.044	6670
659.096	6644
659.147	6661
659.199	6699
659.251	6714
659.302	6675
659.354	6740
659.406	6681
659.457	6716
659.509	6779
659.56	6742
659.612	6726
659.664	6668
659.715	6771
659.767	6741
659.818	6725
659.87	6782
659.922	6773
659.973	6748
660.025	6780
660.077	6802
660.128	6754
660.18	6804
660.231	6766
660.283	6830
660.335	6833
660.386	6803
660.438	6792
660.49	6771
660.541	6814
660.593	6876
660.644	6755
660.696	6781
660.748	6774
660.799	6762
660.851	6850
660.902	6792
660.954	6793
661.006	6846
661.057	6835
661.109	6804
661.16	6817
661.212	6834
661.264	6776
661.315	6766
661.367	6764
661.418	6831
661.47	6834
661.522	6874
661.573	6827
661.625	6754
661.676	6858
661.728	6742
661.78	6887
661.831	6835
661.883	6793
661.934	6797
661.986	6785
662.038	6897
662.089	6836
662.141	6793
662.192	6867
662.244	6767
662.296	6853
662.347	6725
662.399	6765
662.45	6799
662.502	6843
662.554	6855
662.605	6914
662.657	6781
662.708	6836
662.76	6802
662.811	6833
662.863	6886
662.915	6928
662.966	6915
663.018	6829
663.069	6796
663.121	6847
663.173	6801
663.224	6871
663.276	6880
663.327	6904
663.379	6807
663.43	6782
663.482	6815
663.534	6809
663.585	6892
663.637	6773
663.688	6821
663.74	6898.39
663.792	6827.69
663.843	6853.14
663.895	6834.85
663.946	6897.2
663.998	6904.83
664.049	6914.21
664.101	6822.28
664.153	6953.02
664.204	6870.84
664.256	6901.07
664.307	6860.3
664.359	6914.95
664.41	6869.42
664.462	6850.36
664.513	6791.43
664.565	6865
664.617	6886.94
664.668	6862.26
664.72	6924.49
664.771	6856.21
664.823	6827.63
664.874	6852.53
664.926	6868.53
664.978	6905.82
665.029	6907.14
665.081	6860.63
665.132	6817.74
665.184	6847.57
665.235	6880.38
665.287	6880.42
665.339	6834.7
665.39	6902.66
665.442	6858.45
665.493	6881.72
665.545	6847.5
665.596	6889.03
665.648	6852.67
665.699	6883.62
665.751	6852.54
665.802	6869.8
665.854	6879.62
665.906	6823.63
665.957	6831.11
666.009	6847.67
666.06	6883.19
666.112	6848.33
666.163	6873.71
666.215	6893.57
666.266	6823.11
666.318	6863.66
666.37	6830.33
666.421	6851.61
666.473	6850.93
666.524	6820.81
666.576	6867.42
666.627	6876.29
666.679	6849.48
666.73	6845.25
666.782	6801.74
666.833	6883.21
666.885	6842.34
666.937	6836.66
666.988	6859.8
667.04	6882.49
667.091	6843.9
667.143	6838.95
667.194	6820.15
667.246	6854.72
667.297	6840.41
667.349	6870.56
667.4	6854.99
667.452	6846.18
667.503	6849.74
667.555	6866.38
667.607	6904.06
667.658	6812.76
667.71	6819.08
667.761	6861.72
667.813	6859.24
667.864	6799.34
667.916	6891.6
667.967	6897.91
668.019	6838.71
668.07	6820.07
668.122	6824.57
668.173	6863.33
668.225	6872.37
668.276	6867.98
668.328	6891.51
668.379	6834.57
668.431	6806.99
668.482	6874.36
668.534	6904.47
668.586	6858.4
668.637	6868.83
668.689	6857.88
668.74	6858.85
668.792	6879.68
668.843	6896.69
668.895	6915.46
668.935	6771
668.987	6838
669.038	6880
669.09	6901
669.142	6894
669.194	6843
669.245	6856
669.297	6909
669.349	6912
669.401	6887
669.453	6804
669.504	6828
669.556	6851
669.608	6955
669.66	6811
669.711	6863
669.763	6831
669.815	6891
669.867	6841
669.918	6879
669.97	6830
670.022	6852
670.074	6844
670.125	6807
670.177	6812
670.229	6809
670.281	6889
670.332	6862
670.384	6884
670.436	6839
670.488	6871
670.539	6818
670.591	6828
670.643	6856
670.695	6756
670.747	6861
670.798	6901
670.85	6837
670.902	6851
670.953	6875
671.005	6897
671.057	6838
671.109	6811
671.161	6776
671.212	6835
671.264	6884
671.316	6975
671.367	6857
671.419	6875
671.471	6888
671.523	6935
671.575	6861
671.626	6904
671.678	6884
671.73	6854
671.781	6902
671.833	6885
671.885	6913
671.937	6914
671.988	6910
672.04	6881
672.092	6885
672.144	6909
672.195	6868
672.247	6914
672.299	6874
672.351	6930
672.402	6915
672.454	6896
672.506	6937
672.558	6940
672.609	6947
672.661	6995
672.713	6955
672.765	6929
672.816	6973
672.868	6977
672.92	7018
672.971	6902
673.023	7024
673.075	6917
673.127	6963
673.178	7058
673.23	6971
673.282	6927
673.334	7032
673.385	7004
673.437	7068
673.489	7004
673.54	6982
673.592	6980
673.644	7077
673.696	7110
673.747	7058
673.799	7144
673.851	7119
673.903	7028
673.954	7062
674.006	7022
674.058	7083
674.109	7048
674.161	7066
674.213	7167
674.265	7127
674.316	7065
674.368	7150
674.42	7099
674.471	7086
674.523	7168
674.575	7213
674.627	7165
674.678	7175
674.73	7146
674.782	7169
674.833	7211
674.885	7156
674.937	7307
674.989	7210
675.04	7165
675.092	7213
675.144	7252
675.195	7203
675.247	7171
675.299	7227
675.351	7248
675.402	7242
675.454	7284
675.506	7217
675.557	7376
675.609	7282
675.661	7202
675.713	7283
675.764	7264
675.816	7238
675.868	7310
675.919	7320
675.971	7374
676.023	7329
676.074	7300
676.126	7300
676.178	7313
676.23	7349
676.281	7432
676.333	7379
676.385	7400
676.436	7295
676.488	7365
676.54	7302
676.591	7240
676.643	7388
676.695	7370
676.747	7334
676.798	7402
676.85	7344
676.902	7358
676.953	7325
677.005	7329
677.057	7379
677.108	7318
677.16	7290
677.212	7309
677.263	7380
677.315	7296
677.367	7453
677.419	7416
677.47	7375
677.522	7366
677.574	7383
677.625	7357
677.677	7377
677.729	7365
677.78	7306
677.832	7387
677.884	7337
677.935	7427
677.987	7430
678.039	7407
678.091	7422
678.142	7395
678.194	7332
678.246	7389
678.297	7382
678.349	7385
678.401	7392
678.452	7418
678.504	7388
678.556	7401
678.607	7343
678.659	7357
678.711	7385
678.762	7392
678.814	7336
678.866	7381
678.917	7410
678.969	7345
679.021	7371
679.072	7406
679.124	7438
679.176	7462
679.227	7379
679.279	7424
679.331	7413
679.382	7385
679.434	7352
679.486	7418
679.537	7437
679.589	7430
679.641	7348
679.692	7439
679.744	7410
679.796	7438
679.847	7417
679.899	7457
679.951	7439
680.003	7524
680.054	7414
680.106	7506
680.157	7475
680.209	7509
680.261	7418
680.312	7433
680.364	7462
680.416	7462
680.467	7521
680.519	7467
680.571	7579
680.622	7438
680.674	7479
680.726	7541
680.777	7583
680.829	7524
680.881	7499
680.932	7591
680.984	7581
681.036	7562
681.087	7538
681.139	7524
681.191	7546
681.242	7606
681.294	7509
681.346	7494
681.397	7636
681.449	7580
681.501	7541
681.552	7594
681.604	7663
681.656	7642
681.707	7634
681.759	7621
681.81	7626
681.862	7587
681.914	7677
681.965	7703
682.017	7660
682.069	7714
682.12	7602
682.172	7603
682.224	7619
682.275	7662
682.327	7748
682.379	7660
682.43	7690
682.482	7671
682.533	7598
682.585	7689
682.637	7610
682.688	7713
682.74	7696
682.792	7724
682.843	7675
682.895	7752
682.947	7643
682.998	7677
683.05	7691
683.102	7699
683.153	7715
683.205	7694
683.256	7683
683.308	7704
683.36	7633
683.411	7708
683.463	7769
683.515	7660
683.566	7666
683.618	7720
683.669	7657
683.721	7729
683.773	7661
683.824	7717
683.876	7713
683.928	7635
683.979	7688
684.031	7753
684.082	7726
684.134	7663
684.186	7639
684.237	7630
684.289	7749
684.341	7720
684.392	7640
684.444	7671
684.495	7660
684.547	7648
684.599	7663
684.65	7696
684.702	7666
684.754	7793
684.805	7643
684.857	7705
684.908	7594
684.96	7675
685.012	7624
685.063	7640
685.115	7646
685.166	7660
685.218	7600
685.27	7621
685.321	7596
685.373	7643
685.424	7692
685.476	7581
685.528	7528
685.579	7593
685.631	7620
685.683	7539
685.734	7677
685.786	7604
685.837	7595
685.889	7613
685.941	7650
685.992	7614
686.044	7621
686.095	7631
686.147	7556
686.199	7473
686.25	7557
686.302	7557
686.353	7575
686.405	7516
686.457	7622
686.508	7549
686.56	7595
686.611	7465
686.663	7608
686.715	7547
686.766	7524
686.818	7502
686.869	7577
686.921	7544
686.973	7448
687.024	7609
687.076	7552
687.127	7588
687.179	7477
687.231	7526
687.282	7449
687.334	7521
687.385	7527
687.437	7561
687.489	7469
687.54	7512
687.592	7498
687.643	7561
687.695	7505
687.747	7535
687.798	7541
687.85	7524
687.901	7523
687.953	7543
688.004	7527
688.056	7497
688.108	7436
688.159	7493
688.211	7592
688.262	7551
688.314	7527
688.366	7495
688.417	7478
688.469	7486
688.52	7495
688.572	7474
688.623	7539
688.675	7480
688.727	7520
688.778	7535
688.83	7542
688.881	7516
688.933	7521
688.984	7487
689.036	7553
689.088	7446
689.139	7475
689.191	7496
689.242	7589
689.294	7477
689.346	7448
689.397	7433
689.449	7514
689.5	7526
689.552	7520
689.603	7489
689.655	7445
689.706	7466
689.758	7477
689.81	7467
689.861	7524
689.913	7487
689.964	7466
690.016	7481
690.067	7450
690.119	7430
690.171	7452
690.222	7474
690.274	7435
690.325	7480
690.377	7432
690.428	7469
690.48	7435
690.531	7364
690.583	7420
690.635	7444
690.686	7384
690.738	7356
690.789	7345
690.841	7339
690.892	7449
690.944	7408
690.996	7330
691.047	7278
691.099	7414
691.15	7413
691.202	7401
691.253	7378
691.305	7410
691.356	7423
691.408	7363
691.459	7348
691.511	7350
691.563	7333
691.614	7305
691.666	7340
691.717	7299
691.769	7322
691.82	7290
691.872	7305
691.923	7287
691.975	7226
692.026	7267
692.078	7277
692.13	7305
692.181	7303
692.233	7306
692.284	7267
692.336	7307
692.387	7239
692.439	7287
692.49	7289
692.542	7319
692.593	7235
692.645	7314
692.697	7274
692.748	7249
692.8	7253
692.851	7230
692.903	7316
692.954	7329
693.006	7286
693.057	7208
693.109	7247
693.16	7195
693.212	7175
693.263	7211
693.315	7138
693.366	7212
693.418	7252
693.47	7157
693.521	7196
693.573	7200
693.624	7161
693.676	7244
693.727	7152
693.779	7220
693.83	7243
693.882	7163
693.933	7171
693.985	7138
694.036	7144
694.088	7150
694.139	7207
694.191	7155
694.242	7216
694.294	7175
694.345	7151
694.397	7148
694.448	7144
694.5	7149
694.552	7127
694.603	7168
694.655	7101
694.706	7185
694.758	7169
694.809	7205
694.861	7105
694.912	7143
694.964	7190
695.015	7184
695.067	7108
695.118	7130
695.17	7067
695.221	7084
695.273	7040
695.324	7141
695.376	7137
695.427	7141
695.479	7058
695.53	7070
695.582	7192
695.633	7054
695.685	7125
695.736	7070
695.788	7063
695.839	7079
695.891	7122
695.942	7091
695.994	7111
696.045	7053
696.097	7080
696.148	7058
696.2	6979
696.251	7077
696.303	7118
696.354	7049
696.406	7006
696.457	7050
696.509	7000
696.56	7053
696.612	7132
696.663	7038
696.715	6973
696.766	7003
696.818	7022
696.869	6977
696.921	7053
696.972	6992
697.024	6995
697.075	6996
697.127	7017
697.178	7004
697.23	6992
697.281	6965
697.333	6935
697.384	7020
697.436	6947
697.487	6975
697.539	6973
697.59	6925
697.642	6882
697.693	6987
697.745	6923
697.796	6924
697.847	6913
697.899	6887
697.95	6910
698.002	6940
698.053	6839
698.105	6906
698.156	6865
698.208	6893
698.259	6900
698.311	6864
698.362	6933
698.414	6893
698.465	6833
698.517	6840
698.568	6905
698.62	6879
698.671	6901
698.723	6822
698.774	6795
698.826	6862
698.877	6796
698.928	6777
698.98	6795
699.031	6774
699.083	6767
699.134	6764
699.186	6813
699.237	6726
699.289	6738
699.34	6787
699.392	6744
699.443	6774
699.495	6792
699.546	6752
699.598	6730
699.649	6792
699.7	6776
699.752	6723
699.803	6743
699.855	6754
699.906	6797
699.958	6712
700.009	6809
700.061	6686
700.112	6751
700.164	6740
700.215	6765
700.266	6772
700.318	6739
700.369	6710
700.421	6704
700.472	6747
700.524	6774
700.575	6764
700.627	6707
700.678	6675
700.73	6625
700.781	6665
700.832	6669
700.884	6715
700.935	6740
700.987	6702
701.038	6626
701.09	6688
701.141	6753
701.193	6700
701.244	6751
701.295	6755
701.347	6706
701.398	6762
701.45	6687
701.501	6717
701.553	6675
701.604	6624
701.656	6716
701.707	6672
701.758	6690
701.81	6719
701.861	6796
701.913	6686
701.964	6697
702.016	6648
702.067	6702
702.119	6801
702.17	6722
702.221	6698
702.273	6740
702.324	6613
702.376	6730
702.427	6766
702.479	6722
702.53	6703
702.581	6757
702.633	6693
702.684	6753
702.736	6694
702.787	6703
702.839	6702
702.89	6688
702.941	6670
702.993	6785
703.044	6777
703.096	6699
703.147	6747
703.199	6689
703.25	6730
703.301	6700
703.353	6658
703.404	6745
703.456	6626
703.507	6666
703.558	6648
703.61	6763
703.661	6690
703.713	6603
703.764	6710
703.816	6646
703.867	6703
703.918	6619
703.97	6625
704.021	6717
704.073	6646
704.124	6657
704.175	6677
704.227	6673
704.278	6695
704.33	6684
704.381	6632
704.432	6676
704.484	6611
704.535	6665
704.587	6568
704.638	6636
704.69	6596
704.741	6577
704.792	6604
704.844	6605
704.895	6638
704.947	6695
704.998	6552
705.049	6613
705.101	6597
705.152	6556
705.204	6624
705.255	6613
705.306	6577
705.358	6627
705.409	6550
705.461	6515
705.512	6503
705.563	6513
705.615	6513
705.666	6500
705.718	6577
705.769	6451
705.82	6524
705.872	6498
705.923	6453
705.974	6436
706.026	6420
706.077	6490
706.129	6492
706.18	6478
706.231	6481
706.283	6522
706.334	6430
706.386	6461
706.437	6452
706.488	6454
706.54	6348
706.591	6469
706.643	6389
706.694	6403
706.745	6400
706.797	6447
706.848	6366
706.899	6397
706.951	6309
707.002	6405
707.054	6366
707.105	6380
707.156	6408
707.208	6400
707.259	6434
707.31	6383
707.362	6394
707.413	6382
707.465	6302
707.516	6317
707.567	6273
707.619	6382
707.67	6328
707.721	6345
707.773	6300
707.824	6276
707.876	6292
707.927	6315
707.978	6316
708.03	6292
708.081	6215
708.132	6295
708.184	6317
708.235	6308
708.287	6285
708.338	6312
708.389	6233
708.441	6287
708.492	6262
708.543	6323
708.595	6307
708.646	6198
708.697	6283
708.749	6271
708.8	6261
708.852	6227
708.903	6271
708.954	6219
709.006	6222
709.057	6194
709.108	6214
709.16	6230
709.211	6243
709.262	6291
709.314	6232
709.365	6267
709.416	6237
709.468	6174
709.519	6293
709.57	6175
709.622	6223
709.673	6203
709.725	6295
709.776	6257
709.827	6174
709.879	6142
709.93	6208
709.981	6180
710.033	6142
710.084	6170
710.135	6180
710.187	6210
710.238	6194
710.289	6177
710.341	6135
710.392	6159
710.443	6213
710.495	6179
710.546	6223
710.597	6138
710.649	6082
710.7	6054
710.751	6099
710.803	6137
710.854	6168
710.905	6078
710.957	6086
711.008	6199
711.059	6115
711.111	6080
711.162	6069
711.213	6123
711.265	6183.28
711.316	6134.08
711.367	6108.8
711.419	6067.34
711.47	6124.94
711.521	6106.18
711.573	6085.11
711.624	6093.53
711.675	6040.88
711.727	6117.3
711.778	6068.78
711.829	6074.18
711.881	6052.78
711.932	6130.06
711.983	6090.12
712.035	6131.37
712.086	6075.94
712.137	6028.75
712.189	6007.48
712.24	6024.29
712.291	6040.63
712.343	6028.66
712.394	5993.25
712.445	6023.76
712.496	6015.68
712.548	6053.45
712.599	6006.58
712.65	6041.84
712.702	6009.28
712.753	6013.23
712.804	6005.36
712.856	5959.44
712.907	5963.51
712.958	5871.82
713.01	5954.93
713.061	5943.83
713.112	5940.04
713.164	5935.53
713.215	5947.08
713.266	5960.64
713.317	5938.62
713.369	5881.57
713.42	5896.65
713.471	5880.91
713.523	5882.73
713.574	5915.97
713.625	5898.22
713.677	5919.59
713.728	5911.91
713.779	5869.67
713.831	5852.52
713.882	5804.74
713.933	5818.07
713.984	5824.02
714.036	5887.51
714.087	5846.86
714.138	5809.91
714.19	5820.43
714.241	5826.36
714.292	5821.98
714.343	5801.07
714.395	5774.32
714.446	5766.84
714.497	5800.33
714.549	5828.3
714.6	5808.92
714.651	5789.17
714.703	5746.7
714.754	5787.17
714.805	5742.33
714.856	5741.72
714.908	5719.67
714.959	5712.36
715.01	5720.71
715.062	5733.3
715.113	5720.34
715.164	5707.21
715.215	5699.28
715.267	5718.91
715.318	5697.41
715.369	5689.93
715.421	5647.06
715.472	5681.07
715.523	5637.63
715.574	5650.44
715.626	5676.65
715.677	5682.6
715.728	5667.98
715.779	5661.25
715.831	5635.05
715.882	5626.61
715.933	5660.16
715.985	5659.88
716.036	5696.87
716.087	5667.11
716.138	5600.61
716.19	5612.61
716.241	5592.11
716.292	5605.11
716.343	5607.23
716.395	5607.89
716.433	5595
716.485	5596
716.536	5640
716.588	5587
716.639	5593
716.691	5583
716.742	5590
716.794	5518
716.845	5569
716.897	5581
716.948	5527
717	5595
717.052	5520
717.103	5610
717.155	5591
717.206	5509
717.258	5598
717.309	5527
717.361	5505
717.412	5592
717.464	5541
717.515	5509
717.567	5459
717.618	5489
717.67	5460
717.721	5496
717.773	5512
717.824	5519
717.876	5533
717.927	5505
717.979	5444
718.03	5441
718.082	5493
718.133	5512
718.185	5485
718.237	5414
718.288	5482
718.34	5420
718.391	5480
718.443	5444
718.494	5476
718.546	5443
718.597	5462
718.649	5392
718.7	5459
718.752	5424
718.803	5452
718.855	5394
718.906	5386
718.958	5430
719.009	5477
719.061	5414
719.112	5378
719.164	5348
719.215	5375
719.267	5343
719.318	5351
719.37	5401
719.421	5324
719.473	5339
719.524	5380
719.576	5343
719.627	5319
719.679	5419
719.73	5377
719.782	5303
719.833	5328
719.885	5320
719.936	5321
719.988	5338
720.039	5287
720.091	5289
720.142	5333
720.194	5252
720.245	5224
720.297	5254
720.348	5272
720.4	5164
720.451	5195
720.503	5248
720.554	5239
720.606	5155
720.657	5232
720.709	5191
720.76	5232
720.812	5214
720.863	5169
720.915	5257
720.966	5189
721.018	5291
721.069	5227
721.121	5174
721.172	5218
721.224	5149
721.275	5171
721.327	5189
721.378	5145
721.43	5146
721.481	5178
721.532	5105
721.584	5129
721.635	5159
721.687	5089
721.738	5124
721.79	5095
721.841	5149
721.893	5171
721.944	5109
721.996	5066
722.047	5092
722.099	5037
722.15	5066
722.202	5053
722.253	5031
722.305	5055
722.356	5061
722.408	5066
722.459	5007
722.511	4957
722.562	5016
722.614	5082
722.665	5002
722.716	5018
722.768	4993
722.819	5051
722.871	4993
722.922	5009
722.974	4987
723.025	4980
723.077	4928
723.128	4972
723.18	4977
723.231	4928
723.283	4932
723.334	4966
723.386	4884
723.437	4908
723.488	4939
723.54	4999
723.591	4888
723.643	4920
723.694	4873
723.746	4840
723.797	4831
723.849	4893
723.9	4936
723.952	4891
724.003	4881
724.055	4882
724.106	4905
724.157	4921
724.209	4869
724.26	4966
724.312	4892
724.363	4832
724.415	4894
724.466	4831
724.518	4846
724.569	4841
724.621	4821
724.672	4841
724.723	4808
724.775	4798
724.826	4797
724.878	4877
724.929	4830
724.981	4846
725.032	4776
725.084	4805
725.135	4858
725.187	4792
725.238	4785
725.289	4752
725.341	4760
725.392	4773
725.444	4814
725.495	4734
725.547	4772
725.598	4797
725.65	4750
725.701	4754
725.752	4736
725.804	4738
725.855	4762
725.907	4799
725.958	4696
726.01	4726
726.061	4704
726.112	4709
726.164	4728
726.215	4701
726.267	4727
726.318	4718
726.37	4737
726.421	4680
726.473	4705
726.524	4748
726.575	4716
726.627	4662
726.678	4635
726.73	4644
726.781	4643
726.833	4672
726.884	4665
726.935	4679
726.987	4658
727.038	4635
727.09	4607
727.141	4659
727.193	4636
727.244	4621
727.295	4559
727.347	4577
727.398	4592
727.45	4584
727.501	4534
727.552	4499
727.604	4565
727.655	4539
727.707	4594
727.758	4552
727.81	4573
727.861	4515
727.912	4510
727.964	4536
728.015	4558
728.067	4565
728.118	4480
728.17	4529
728.221	4522
728.272	4502
728.324	4495
728.375	4472
728.427	4499
728.478	4530
728.529	4465
728.581	4478
728.632	4461
728.684	4471
728.735	4451
728.786	4412
728.838	4459
728.889	4437
728.941	4374
728.992	4408
729.044	4354
729.095	4429
729.146	4412
729.198	4390
729.249	4358
729.301	4287
729.352	4384
729.403	4341
729.455	4329
729.506	4370
729.558	4312
729.609	4291
729.66	4282
729.712	4304
729.763	4354
729.815	4318
729.866	4298
729.917	4226
729.969	4288
730.02	4265
730.072	4273
730.123	4251
730.174	4233
730.226	4261
730.277	4254
730.329	4274
730.38	4238
730.431	4264
730.483	4184
730.534	4195
730.586	4226
730.637	4190
730.688	4189
730.74	4243
730.791	4155
730.842	4236
730.894	4269
730.945	4183
730.997	4144
731.048	4212
731.099	4212
731.151	4189
731.202	4152
731.254	4160
731.305	4137
731.356	4093
731.408	4118
731.459	4138
731.51	4111
731.562	4126
731.613	4109
731.665	4205
731.716	4087
731.767	4161
731.819	4151
731.87	4128
731.922	4143
731.973	4071
732.024	4132
732.076	4152
732.127	4135
732.178	4104
732.23	4094
732.281	4065
732.333	4068
732.384	4072
732.435	4058
732.487	4069
732.538	4069
732.589	4074
732.641	4086
732.692	4042
732.744	4070
732.795	4061
732.846	4013
732.898	4017
732.949	4066
733	4065
733.052	4078
733.103	4051
733.154	3985
733.206	4014
733.257	4047
733.309	4015
733.36	4023
733.411	4012
733.463	4014
733.514	4007
733.565	4048
733.617	4068
733.668	3986
733.719	4038
733.771	4002
733.822	3981
733.873	4011
733.925	3939
733.976	4039
734.028	4076
734.079	4026
734.13	3920
734.182	3999
734.233	3962
734.284	3968
734.336	3963
734.387	3998
734.438	3957
734.49	4014
734.541	3979
734.592	3990
734.644	3949
734.695	3948
734.747	3958
734.798	3924
734.849	3967
734.901	3976
734.952	3948
735.003	3980
735.055	3955
735.106	4000
735.157	3898
735.209	3977
735.26	3942
735.311	3902
735.363	3937
735.414	3837
735.465	3973
735.517	3839
735.568	3883
735.619	3915
735.671	3911
735.722	3877
735.773	3860
735.825	3896
735.876	3860
735.927	3901
735.979	3855
736.03	3935
736.081	3893
736.133	3912
736.184	3872
736.235	3889
736.287	3867
736.338	3824
736.389	3853
736.441	3835
736.492	3848
736.543	3836
736.595	3880
736.646	3864
736.697	3839
736.749	3851
736.8	3904
736.851	3851
736.903	3892
736.954	3853
737.005	3886
737.057	3875
737.108	3912
737.159	3812
737.211	3853
737.262	3878
737.313	3870
737.365	3821
737.416	3888
737.467	3870
737.518	3829
737.57	3837
737.621	3858
737.672	3850
737.724	3846
737.775	3783
737.826	3839
737.878	3850
737.929	3824
737.98	3817
738.032	3827
738.083	3838
738.134	3819
738.186	3830
738.237	3813
738.288	3830
738.339	3811
738.391	3782
738.442	3759
738.493	3833
738.545	3803
738.596	3816
738.647	3838
738.699	3828
738.75	3835
738.801	3814
738.853	3796
738.904	3741
738.955	3771
739.006	3786
739.058	3727
739.109	3833
739.16	3756
739.212	3781
739.263	3743
739.314	3770
739.366	3736
739.417	3768
739.468	3773
739.519	3744
739.571	3726
739.622	3763
739.673	3672
739.725	3736
739.776	3746
739.827	3764
739.878	3703
739.93	3759
739.981	3724
740.032	3777
740.084	3757
740.135	3698
740.186	3706
740.237	3667
740.289	3732
740.34	3722
740.391	3662
740.443	3727
740.494	3714
740.545	3713
740.596	3725
740.648	3681
740.699	3696
740.75	3660
740.802	3677
740.853	3678
740.904	3628
740.956	3670
741.007	3649
741.058	3673
741.109	3616
741.161	3689
741.212	3596
741.263	3588
741.314	3575
741.366	3620
741.417	3703
741.468	3694
741.52	3633
741.571	3641
741.622	3640
741.673	3644
741.725	3653
741.776	3603
741.827	3640
741.878	3620
741.93	3616
741.981	3601
742.032	3561
742.083	3568
742.135	3603
742.186	3589
742.237	3589
742.289	3571
742.34	3569
742.391	3599
742.442	3537
742.494	3549
742.545	3555
742.596	3550
742.647	3533
742.699	3572
742.75	3604
742.801	3569
742.852	3528
742.904	3596
742.955	3550
743.006	3540
743.057	3532
743.109	3543
743.16	3525
743.211	3520
743.263	3547
743.314	3470
743.365	3490
743.416	3521
743.468	3459
743.519	3489
743.57	3489
743.621	3474
743.672	3534
743.724	3486
743.775	3508
743.826	3499
743.878	3435
743.929	3472
743.98	3458
744.031	3417
744.083	3457
744.134	3493
744.185	3488
744.236	3457
744.287	3417
744.339	3468
744.39	3421
744.441	3445
744.492	3455
744.544	3476
744.595	3420
744.646	3486
744.697	3434
744.749	3417
744.8	3448
744.851	3440
744.902	3386
744.954	3372
745.005	3376
745.056	3410
745.107	3385
745.159	3405
745.21	3420
745.261	3404
745.312	3402
745.363	3369
745.415	3376
745.466	3362
745.517	3364
745.568	3401
745.62	3326
745.671	3381
745.722	3370
745.773	3361
745.824	3395
745.876	3353
745.927	3304
745.978	3357
746.029	3354
746.081	3380
746.132	3262
746.183	3366
746.234	3310
746.285	3341
746.337	3335
746.388	3318
746.439	3346
746.49	3365
746.542	3344
746.593	3320
746.644	3352
746.695	3285
746.746	3328
746.798	3329
746.849	3278
746.9	3269
746.951	3273
747.003	3260
747.054	3315
747.105	3342
747.156	3289
747.207	3318
747.259	3216
747.31	3297
747.361	3247
747.412	3262
747.463	3270
747.515	3270
747.566	3267
747.617	3251
747.668	3320
747.719	3269
747.771	3235
747.822	3223
747.873	3263
747.924	3283
747.975	3228
748.027	3222
748.078	3208
748.129	3242
748.18	3200
748.231	3255
748.283	3255
748.334	3220
748.385	3191
748.436	3189
748.487	3194
748.539	3221
748.59	3203
748.641	3207
748.692	3226
748.743	3244
748.795	3223
748.846	3179
748.897	3165
748.948	3260
748.999	3198
749.05	3192
749.102	3180
749.153	3160
749.204	3208
749.255	3214
749.306	3139
749.358	3207
749.409	3202
749.46	3144
749.511	3203
749.562	3167
749.614	3147
749.665	3170
749.716	3164
749.767	3166
749.818	3202
749.869	3154
749.921	3160
749.972	3169
750.023	3139
750.074	3124
750.125	3158
750.177	3157
750.228	3100
750.279	3064
750.33	3164
750.381	3074
750.432	3065
750.484	3129
750.535	3120
750.586	3135
750.637	3110
750.688	3120
750.739	3102
750.791	3091
750.842	3033
750.893	3086
750.944	3117
750.995	3054
751.046	3107
751.098	3081
751.149	3106
751.2	3012
751.251	3056
751.302	3063
751.353	3099
751.404	3056
751.456	3115
751.507	3049
751.558	3050
751.609	3064
751.66	3027
751.711	3049
751.763	3026
751.814	2977
751.865	3004
751.916	3002
751.967	3048
752.018	3032
752.07	3052
752.121	3050
752.172	3016
752.223	2992
752.274	3068
752.325	2972
752.376	3038
752.428	2989
752.479	3005
752.53	2963
752.581	2996
752.632	2983
752.683	2953
752.734	2924
752.786	2964
752.837	2920
752.888	2951
752.939	2961
752.99	2968
753.041	2941
753.092	2912
753.144	2935
753.195	2949
753.246	2928
753.297	2997
753.348	2938
753.399	2948
753.45	2925
753.502	2944
753.553	2926
753.604	2898
753.655	2925
753.706	2928
753.757	2932
753.808	2896
753.859	2896
753.911	2875
753.962	2895
754.013	2849
754.064	2937
754.115	2913
754.166	2819
754.217	2846
754.269	2888
754.32	2847
754.371	2807
754.422	2854
754.473	2914
754.524	2885
754.575	2819
754.626	2848
754.678	2847
754.729	2836
754.78	2819
754.831	2822
754.882	2811
754.933	2830
754.984	2805
755.035	2853
755.086	2773
755.138	2766
755.189	2876
755.24	2855
755.291	2846
755.342	2761
755.393	2817
755.444	2854
755.495	2797
755.547	2804
755.598	2761
755.649	2778
755.7	2831
755.751	2777
755.802	2721
755.853	2799
755.904	2803
755.955	2845
756.006	2789
756.058	2755
756.109	2792
756.16	2778
756.211	2796
756.262	2763
756.313	2793
756.364	2754
756.415	2787
756.466	2700
756.518	2756
756.569	2724
756.62	2764
756.671	2732
756.722	2713
756.773	2728
756.824	2709
756.875	2710
756.926	2722
756.977	2728
757.029	2674
757.08	2730
757.131	2729
757.182	2675
757.233	2729
757.284	2718
757.335	2699
757.386	2677
757.437	2696
757.488	2748
757.539	2686
757.59	2730
757.642	2680
757.693	2665
757.744	2684
757.795	2659
757.846	2661
757.897	2637
757.948	2706
757.999	2639
758.05	2670
758.101	2686
758.152	2676
758.203	2669
758.255	2658
758.306	2601
758.357	2661
758.408	2661
758.459	2638
758.51	2576.44
758.561	2597.25
758.612	2677
758.663	2614.47
758.714	2639.17
758.765	2603.19
758.816	2619.14
758.867	2635.79
758.919	2658.79
758.97	2637.97
759.021	2671.72
759.072	2583.95
759.123	2593.67
759.174	2612.9
759.225	2618.86
759.276	2641.6
759.327	2599.25
759.378	2604
759.429	2636.2
759.48	2572.35
759.531	2548.93
759.582	2598.4
759.633	2619.11
759.685	2567.42
759.736	2565.1
759.787	2575.9
759.838	2574.88
759.889	2547.22
759.94	2559.1
759.991	2556.2
760.042	2546.6
760.093	2518.18
760.144	2538.8
760.195	2515.04
760.246	2528.35
760.297	2531.72
760.348	2529.69
760.399	2533.24
760.45	2536.24
760.501	2522.81
760.552	2534.2
760.603	2509.15
760.655	2512.42
760.706	2485.56
760.757	2506.76
760.808	2488.33
760.859	2501.57
760.91	2461.74
760.961	2503.78
761.012	2515.36
761.063	2484.27
761.114	2486.34
761.165	2472.78
761.216	2494.14
761.267	2483.16
761.318	2485.34
761.369	2474.84
761.42	2504.91
761.471	2491.77
761.522	2471.04
761.573	2498.9
761.624	2483.03
761.675	2452.81
761.726	2477.16
761.777	2498.64
761.828	2448.7
761.88	2436.99
761.931	2453.42
761.982	2438.01
762.033	2476.57
762.084	2453.3
762.135	2451.14
762.186	2424.35
762.237	2443.01
762.288	2410.49
762.339	2440.87
762.39	2455.43
762.441	2428.97
762.492	2398.65
762.543	2408.03
762.594	2411.73
762.645	2443.57
762.696	2426.49
762.747	2408.82
762.798	2379.87
762.849	2390.42
762.9	2409.35
762.951	2409.57
763.002	2374.2
763.053	2385.92
763.104	2389.04
763.155	2396.11
763.206	2394.26
763.257	2388.32
763.308	2362.94
763.359	2375.81
763.41	2402.74
763.461	2353.65
763.512	2373.06
763.563	2376.28
763.614	2375.66
763.665	2363.44
763.678	2359
763.729	2387
763.78	2325
763.832	2362
763.883	2340
763.934	2326
763.986	2367
764.037	2339
764.088	2283
764.139	2305
764.191	2344
764.242	2300
764.293	2303
764.345	2299
764.396	2306
764.447	2357
764.498	2299
764.55	2340
764.601	2330
764.652	2307
764.704	2328
764.755	2303
764.806	2286
764.857	2285
764.909	2261
764.96	2304
765.011	2315
765.062	2301
765.114	2282
765.165	2293
765.216	2235
765.268	2284
765.319	2275
765.37	2279
765.421	2275
765.473	2283
765.524	2213
765.575	2266
765.626	2228
765.678	2283
765.729	2266
765.78	2242
765.831	2249
765.883	2253
765.934	2237
765.985	2210
766.036	2221
766.088	2235
766.139	2240
766.19	2227
766.242	2244
766.293	2209
766.344	2245
766.395	2209
766.447	2227
766.498	2242
766.549	2227
766.6	2234
766.652	2215
766.703	2210
766.754	2188
766.805	2189
766.857	2211
766.908	2214
766.959	2214
767.01	2204
767.062	2203
767.113	2170
767.164	2154
767.215	2199
767.267	2178
767.318	2204
767.369	2187
767.42	2172
767.472	2139
767.523	2163
767.574	2172
767.625	2165
767.677	2154
767.728	2161
767.779	2137
767.83	2169
767.882	2106
767.933	2122
767.984	2143
768.035	2129
768.087	2153
768.138	2112
768.189	2136
768.24	2148
768.292	2151
768.343	2142
768.394	2135
768.445	2128
768.497	2093
768.548	2114
768.599	2108
768.65	2095
768.701	2084
768.753	2072
768.804	2084
768.855	2110
768.906	2069
768.958	2088
769.009	2065
769.06	2075
769.111	2056
769.163	2059
769.214	2088
769.265	2089
769.316	2085
769.367	2092
769.419	2072
769.47	2088
769.521	2062
769.572	2075
769.624	2087
769.675	2092
769.726	2012
769.777	2029
769.828	2022
769.88	2051
769.931	2044
769.982	2047
770.033	2050
770.085	1997
770.136	2035
770.187	2060
770.238	2032
770.289	2000
770.341	1994
770.392	1998
770.443	1982
770.494	1979
770.546	1995
770.597	2008
770.648	2002
770.699	1983
770.75	1973
770.802	1988
770.853	1955
770.904	1970
770.955	1959
771.006	1990
771.058	1971
771.109	1972
771.16	1916
771.211	1930
771.263	1950
771.314	1949
771.365	1941
771.416	1944
771.467	1936
771.519	1946
771.57	1940
771.621	1978
771.672	1964
771.723	1940
771.775	1919
771.826	1942
771.877	1942
771.928	1924
771.979	1912
772.031	1921
772.082	1918
772.133	1918
772.184	1916
772.235	1915
772.287	1916
772.338	1885
772.389	1876
772.44	1873
772.491	1903
772.543	1893
772.594	1868
772.645	1920
772.696	1910
772.747	1904
772.799	1886
772.85	1848
772.901	1876
772.952	1875
773.003	1860
773.055	1913
773.106	1837
773.157	1836
773.208	1842
773.259	1854
773.31	1872
773.362	1833
773.413	1873
773.464	1856
773.515	1870
773.566	1831
773.618	1805
773.669	1805
773.72	1836
773.771	1825
773.822	1846
773.873	1858
773.925	1840
773.976	1824
774.027	1817
774.078	1770
774.129	1858
774.18	1801
774.232	1832
774.283	1813
774.334	1750
774.385	1802
774.436	1815
774.488	1822
774.539	1808
774.59	1799
774.641	1793
774.692	1788
774.743	1775
774.795	1784
774.846	1753
774.897	1794
774.948	1789
774.999	1745
775.05	1776
775.102	1782
775.153	1786
775.204	1763
775.255	1759
775.306	1735
775.357	1740
775.409	1755
775.46	1768
775.511	1741
775.562	1730
775.613	1723
775.664	1747
775.716	1747
775.767	1741
775.818	1746
775.869	1751
775.92	1752
775.971	1767
776.023	1717
776.074	1694
776.125	1757
776.176	1721
776.227	1727
776.278	1725
776.329	1717
776.381	1731
776.432	1705
776.483	1727
776.534	1687
776.585	1699
776.636	1668
776.688	1669
776.739	1679
776.79	1665
776.841	1724
776.892	1700
776.943	1706
776.994	1674
777.046	1682
777.097	1657
777.148	1646
777.199	1644
777.25	1651
777.301	1694
777.352	1650
777.404	1671
777.455	1650
777.506	1688
777.557	1615
777.608	1687
777.659	1652
777.71	1669
777.762	1672
777.813	1642
777.864	1646
777.915	1613
777.966	1636
778.017	1638
778.068	1619
778.12	1625
778.171	1637
778.222	1608
778.273	1617
778.324	1637
778.375	1620
778.426	1633
778.477	1583
778.529	1615
778.58	1570
778.631	1607
778.682	1605
778.733	1629
778.784	1606
778.835	1611
778.886	1593
778.938	1583
778.989	1552
779.04	1567
779.091	1599
779.142	1605
779.193	1571
779.244	1569
779.295	1576
779.347	1583
779.398	1580
779.449	1567
779.5	1573
779.551	1554
779.602	1579
779.653	1561
779.704	1527
779.755	1533
779.807	1560
779.858	1567
779.909	1560
779.96	1551
780.011	1558
780.062	1574
780.113	1555
780.164	1529
780.216	1565
780.267	1528
780.318	1541
780.369	1514
780.42	1564
780.471	1539
780.522	1512
780.573	1533
780.624	1530
780.675	1502
780.727	1501
780.778	1543
780.829	1513
780.88	1509
780.931	1537
780.982	1535
781.033	1537
781.084	1493
781.135	1497
781.187	1486
781.238	1509
781.289	1501
781.34	1504
781.391	1494
781.442	1507
781.493	1463
781.544	1485
781.595	1503
781.646	1489
781.698	1461
781.749	1510
781.8	1445
781.851	1451
781.902	1455
781.953	1482
782.004	1462
782.055	1481
782.106	1491
782.157	1473
782.208	1466
782.26	1499
782.311	1449
782.362	1463
782.413	1450
782.464	1457
782.515	1438
782.566	1481
782.617	1424
782.668	1453
782.719	1460
782.77	1424
782.821	1416
782.872	1434
782.924	1420
782.975	1424
783.026	1439
783.077	1409
783.128	1419
783.179	1447
783.23	1476
783.281	1412
783.332	1407
783.383	1422
783.434	1423
783.485	1436
783.536	1404
783.588	1393
783.639	1410
783.69	1398
783.741	1369
783.792	1410
783.843	1389
783.894	1404
783.945	1400
783.996	1405
784.047	1407
784.098	1415
784.149	1317
784.2	1398
784.252	1383
784.303	1390
784.354	1369
784.405	1360
784.456	1381
784.507	1339
784.558	1393
784.609	1331
784.66	1340
784.711	1388
784.762	1351
784.813	1377
784.864	1370
784.915	1345
784.966	1349
785.017	1367
785.068	1356
785.12	1334
785.171	1362
785.222	1341
785.273	1324
785.324	1331
785.375	1336
785.426	1317
785.477	1333
785.528	1337
785.579	1312
785.63	1313
785.681	1328
785.732	1301
785.783	1334
785.834	1327
785.885	1321
785.936	1304
785.987	1294
786.038	1321
786.089	1290
786.141	1314
786.192	1326
786.243	1289
786.294	1291
786.345	1272
786.396	1295
786.447	1283
786.498	1262
786.549	1301
786.6	1282
786.651	1291
786.702	1288
786.753	1307
786.804	1263
786.855	1283
786.906	1283
786.957	1300
787.008	1269
787.059	1270
787.11	1261
787.161	1276
787.212	1287
787.263	1255
787.314	1241
787.365	1258
787.416	1261
787.467	1245
787.518	1255
787.57	1245
787.621	1242
787.672	1271
787.723	1234
787.774	1261
787.825	1232
787.876	1238
787.927	1230
787.978	1237
788.029	1261
788.08	1210
788.131	1231
788.182	1239
788.233	1240
788.284	1233
788.335	1234
788.386	1216
788.437	1245
788.488	1217
788.539	1199
788.59	1217
788.641	1207
788.692	1226
788.743	1197
788.794	1206
788.845	1199
788.896	1196
788.947	1168
788.998	1202
789.049	1234
789.1	1208
789.151	1197
789.202	1227
789.253	1176
789.304	1167
789.355	1214
789.406	1171
789.457	1186
789.508	1195
789.559	1212
789.61	1194
789.661	1186
789.712	1187
789.763	1179
789.814	1161
789.865	1174
789.916	1162
789.967	1125
790.018	1169
790.069	1153
790.12	1175
790.171	1145
790.222	1176
790.273	1206
790.324	1177
790.375	1161
790.426	1145
790.477	1157
790.528	1159
790.579	1153
790.63	1150
790.681	1173
790.732	1142
790.783	1134
790.834	1127
790.885	1141
790.936	1119
790.987	1118
791.038	1179
791.089	1116
791.14	1100
791.191	1117
791.242	1130
791.293	1108
791.344	1114
791.395	1139
791.446	1156
791.497	1137
791.548	1134
791.599	1122
791.65	1096
791.701	1111
791.752	1100
791.803	1129
791.854	1142
791.905	1112
791.956	1113
792.007	1105
792.058	1076
792.109	1098
792.16	1110
792.211	1118
792.262	1097
792.313	1100
792.363	1111
792.414	1111
792.465	1077
792.516	1077
792.567	1083
792.618	1091
792.669	1075
792.72	1090
792.771	1063
792.822	1057
792.873	1067
792.924	1086
792.975	1058
793.026	1086
793.077	1077
793.128	1053
793.179	1071
793.23	1050
793.281	1062
793.332	1058
793.383	1062
793.434	1062
793.485	1041
793.536	1063
793.587	1044
793.638	1072
793.689	1070
793.74	1071
793.79	1045
793.841	1054
793.892	1067
793.943	1033
793.994	1032
794.045	1035
794.096	1053
794.147	1048
794.198	1009
794.249	1031
794.3	1035
794.351	1061
794.402	1016
794.453	1030
794.504	1024
794.555	1029
794.606	1023
794.657	1062
794.708	1034
794.758	1034
794.809	997
794.86	1032
794.911	1020
794.962	1025
795.013	1031
795.064	1007
795.115	1019
795.166	1009
795.217	1016
795.268	1008
795.319	1029
795.37	1000
795.421	996
795.472	1007
795.523	991
795.573	1008
795.624	1006
795.675	987
795.726	975
795.777	1021
795.828	983
795.879	946
795.93	1014
795.981	993
796.032	1019
796.083	962
796.134	1010
796.185	989
796.236	958
796.286	981
796.337	976
796.388	975
796.439	985
796.49	975
796.541	976
796.592	966
796.643	979
796.694	969
796.745	961
796.796	960
796.847	950
796.897	979
796.948	958
796.999	978
797.05	961
797.101	964
797.152	953
797.203	941
797.254	955
797.305	944
797.356	929
797.407	931
797.458	969
797.508	948
797.559	978
797.61	972
797.661	929
797.712	919
797.763	936
797.814	924
797.865	920
797.916	919
797.967	944
798.018	941
798.068	929
798.119	947
798.17	877
798.221	919
798.272	932
798.323	928
798.374	927
798.425	949
798.476	911
798.526	910
798.577	901
798.628	905
798.679	892
798.73	898
798.781	901
798.832	911
798.883	911
798.934	903
798.984	892
799.035	895
799.086	888
799.137	895
799.188	900
799.239	903
799.29	906
799.341	889
799.392	907
799.443	912
799.493	888
799.544	906
799.595	905
799.646	866
799.697	866
799.748	880
799.799	915
799.85	908
799.9	892
799.951	891
800.002	871
800.053	868
800.104	845
800.155	898
800.206	866
800.257	864
800.307	885
800.358	883
800.409	874
800.46	859
800.511	861
800.562	879
800.613	863
800.664	855
800.714	860
800.765	860
800.816	881
800.867	853
800.918	874
800.969	860
801.02	855
801.07	859
801.121	833
801.172	854
801.223	863
801.274	848
801.325	851
801.376	833
801.427	817
801.477	851
801.528	832
801.579	851
801.63	836
801.681	822
801.732	835
801.783	819
801.833	826
801.884	807
801.935	830
801.986	812
802.037	816
802.088	843
802.139	837
802.189	811
802.24	841
802.291	830
802.342	813
802.393	836
802.444	843
802.495	825
802.545	799
802.596	814
802.647	808
802.698	826
802.749	808
802.8	798
802.85	812
802.901	806
802.952	805
803.003	793
803.054	806
803.105	825
803.155	792
803.206	803
803.257	797
803.308	788
803.359	801
803.41	814
803.46	791
803.511	793
803.562	793
803.613	774
803.664	792
803.715	781
803.765	771
803.816	792
803.867	771
803.918	799
803.969	791
804.02	780
804.07	782
804.121	789
804.172	769
804.223	746
804.274	778
804.325	746
804.375	774
804.426	764
804.477	790
804.528	762
804.579	759
804.63	774
804.68	781
804.731	783
804.782	753
804.833	764
804.884	768
804.934	742
804.985	748
805.036	763
805.087	753
805.138	752
805.188	757
805.239	748
805.29	777
805.341	768
805.392	725
805.443	722
805.493	775.919
805.544	768.768
805.595	756.691
805.646	749.326
805.697	757.639
805.747	754.547
805.798	743.644
805.849	733.396
805.9	751.034
805.951	763.173
806.001	743.758
806.052	751.09
806.103	717.648
806.154	748.25
806.205	720.394
806.255	738.405
806.306	726.323
806.357	734.451
806.408	739.397
806.459	727.951
806.509	725.916
806.56	718.843
806.611	710.824
806.662	730.673
806.713	725.883
806.763	726.775
806.814	710.683
806.865	734.303
806.916	732.327
806.967	719.207
807.017	728.688
807.068	708.31
807.119	713.498
807.17	711.447
807.22	706.396
807.271	713.799
807.322	701.844
807.373	712.611
807.424	712.751
807.474	699.743
807.525	714.156
807.576	705.884
807.627	721.772
807.678	691.055
807.728	695.242
807.779	700.93
807.83	694.031
807.881	716.035
807.931	693.908
807.982	709.077
808.033	695.472
808.084	688.076
808.135	675.355
808.185	711.379
808.236	700.248
808.287	705.546
808.338	705.602
808.388	694.321
808.439	702.29
808.49	703.14
808.541	690.771
808.591	683.615
808.642	675.702
808.693	664.573
808.744	686.536
808.795	697.755
808.845	693.24
808.896	681.368
808.947	693.767
808.998	671.871
809.048	680.879
809.099	693.716
809.15	669.62
809.201	669.792
809.251	668.376
809.302	673.328
809.353	671.346
809.404	659.729
809.454	668.836
809.505	668.079
809.556	678.718
809.607	673.565
809.658	687.51
809.708	661.778
809.759	658.735
809.81	647.225
809.861	669.554
809.911	667.961
809.962	661.733
810.013	658.143
810.064	669.24
810.114	669.528
810.165	652
810.216	669.205
810.267	657.16
810.317	654.451
810.368	662.64
810.419	651.658
810.469	676.227
810.52	648.916
810.571	665.044
810.622	656.179
810.627	655
810.678	644
810.729	653
810.78	663
810.831	634
810.882	660
810.933	675
810.984	645
811.035	646
811.086	646
811.137	628
811.188	633
811.239	643
811.29	637
811.341	666
811.392	618
811.443	626
811.494	635
811.545	634
811.596	649
811.648	613
811.699	649
811.75	642
811.801	619
811.852	627
811.903	630
811.954	625
812.005	607
812.056	624
812.107	621
812.158	613
812.209	619
812.26	616
812.311	609
812.362	621
812.413	630
812.464	618
812.515	625
812.566	625
812.617	616
812.668	629
812.719	627
812.77	615
812.821	612
812.872	595
812.923	615
812.974	601
813.025	604
813.076	609
813.127	602
813.178	605
813.229	591
813.28	589
813.331	586
813.382	600
813.433	593
813.484	572
813.535	611
813.586	604
813.637	604
813.688	608
813.739	598
813.79	586
813.841	588
813.892	588
813.943	582
813.994	589
814.045	589
814.096	578
814.147	575
814.198	609
814.249	583
814.3	597
814.351	584
814.402	602
814.453	571
814.504	567
814.555	592
814.606	580
814.657	577
814.708	585
814.759	595
814.81	589
814.861	592
814.912	573
814.963	603
815.014	575
815.065	589
815.116	564
815.167	568
815.217	582
815.268	584
815.319	579
815.37	594
815.421	564
815.472	578
815.523	563
815.574	580
815.625	555
815.676	566
815.727	567
815.778	551
815.829	566
815.88	588
815.931	567
815.982	563
816.033	560
816.084	567
816.135	549
816.186	554
816.237	545
816.288	572
816.339	558
816.39	551
816.441	552
816.492	554
816.543	551
816.594	539
816.645	555
816.696	573
816.747	554
816.798	549
816.849	559
816.9	571
816.951	561
817.001	544
817.052	544
817.103	547
817.154	559
817.205	552
817.256	549
817.307	541
817.358	542
817.409	527
817.46	550
817.511	542
817.562	538
817.613	512
817.664	546
817.715	541
817.766	538
817.817	531
817.868	538
817.919	529
817.97	530
818.021	532
818.071	538
818.122	541
818.173	526
818.224	532
818.275	532
818.326	526
818.377	521
818.428	522
818.479	533
818.53	536
818.581	542
818.632	523
818.683	523
818.734	513
818.785	549
818.836	509
818.887	550
818.938	512
818.988	498
819.039	521
819.09	524
819.141	510
819.192	524
819.243	502
819.294	519
819.345	518
819.396	497
819.447	509
819.498	496
819.549	530
819.6	506
819.651	502
819.702	521
819.753	489
819.803	500
819.854	523
819.905	484
819.956	506
820.007	512
820.058	502
820.109	513
820.16	507
820.211	504
820.262	508
820.313	508
820.364	509
820.415	509
820.465	490
820.516	501
820.567	493
820.618	496
820.669	508
820.72	491
820.771	479
820.822	501
820.873	479
820.924	467
820.975	477
821.026	492
821.076	492
821.127	493
821.178	490
821.229	482
821.28	498
821.331	475
821.382	471
821.433	467
821.484	486
821.535	497
821.586	482
821.637	474
821.687	487
821.738	488
821.789	491
821.84	486
821.891	486
821.942	459
821.993	478
822.044	505
822.095	473
822.146	472
822.196	473
822.247	468
822.298	471
822.349	468
822.4	471
822.451	476
822.502	472
822.553	463
822.604	474
822.655	451
822.706	478
822.756	482
822.807	481
822.858	476
822.909	474
822.96	483
823.011	460
823.062	476
823.113	461
823.164	466
823.214	478
823.265	465
823.316	452
823.367	470
823.418	466
823.469	474
823.52	461
823.571	450
823.622	467
823.672	454
823.723	464
823.774	455
823.825	435
823.876	460
823.927	438
823.978	458
824.029	452
824.08	473
824.13	464
824.181	460
824.232	453
824.283	446
824.334	450
824.385	450
824.436	460
824.487	457
824.537	444
824.588	450
824.639	447
824.69	438
824.741	446
824.792	445
824.843	436
824.893	437
824.944	444
824.995	433
825.046	444
825.097	448
825.148	462
825.199	448
825.25	452
825.3	425
825.351	423
825.402	430
825.453	443
825.504	425
825.555	435
825.606	452
825.657	448
825.707	430
825.758	416
825.809	448
825.86	443
825.911	406
825.962	416
826.013	421
826.063	428
826.114	444
826.165	426
826.216	427
826.267	442
826.318	433
826.369	418
826.419	428
826.47	428
826.521	425
826.572	404
826.623	423
826.674	428
826.725	415
826.775	423
826.826	418
826.877	441
826.928	422
826.979	425
827.03	410
827.08	409
827.131	436
827.182	423
827.233	413
827.284	428
827.335	425
827.386	418
827.436	420
827.487	417
827.538	412
827.589	407
827.64	417
827.691	416
827.741	429
827.792	413
827.843	420
827.894	412
827.945	417
827.996	400
828.046	411
828.097	404
828.148	415
828.199	409
828.25	412
828.301	420
828.351	414
828.402	417
828.453	417
828.504	411
828.555	406
828.606	401
828.656	394
828.707	424
828.758	413
828.809	417
828.86	382
828.911	409
828.961	423
829.012	400
829.063	396
829.114	400
829.165	409
829.216	401
829.266	395
829.317	378
829.368	425
829.419	399
829.47	411
829.52	416
829.571	392
829.622	402
829.673	399
829.724	401
829.774	410
829.825	419
829.876	392
829.927	414
829.978	385
830.029	379
830.079	392
830.13	384
830.181	399
830.232	379
830.283	381
830.333	385
830.384	400
830.435	369
830.486	400
830.537	384
830.587	390
830.638	383
830.689	397
830.74	389
830.791	376
830.841	392
830.892	392
830.943	382
830.994	381
831.045	388
831.095	390
831.146	389
831.197	397
831.248	386
831.299	367
831.349	386
831.4	386
831.451	378
831.502	397
831.553	388
831.603	384
831.654	379
831.705	381
831.756	373
831.807	382
831.857	374
831.908	364
831.959	378
832.01	375
832.061	350
832.111	374
832.162	373
832.213	372
832.264	376
832.315	369
832.365	364
832.416	365
832.467	386
832.518	383
832.568	380
832.619	372
832.67	372
832.721	370
832.772	370
832.822	371
832.873	354
832.924	358
832.975	367
833.025	359
833.076	376
833.127	364
833.178	370
833.229	363
833.279	370
833.33	359
833.381	350
833.432	367
833.482	360
833.533	363
833.584	357
833.635	350
833.685	353
833.736	348
833.787	353
833.838	348
833.889	349
833.939	354
833.99	362
834.041	361
834.092	345
834.142	363
834.193	349
834.244	360
834.295	346
834.345	348
834.396	344
834.447	363
834.498	346
834.548	347
834.599	347
834.65	351
834.701	345
834.751	333
834.802	345
834.853	340
834.904	348
834.954	361
835.005	348
835.056	344
835.107	337
835.157	361
835.208	338
835.259	356
835.31	344
835.36	365
835.411	357
835.462	364
835.513	347
835.563	347
835.614	340
835.665	338
835.716	341
835.766	334
835.817	350
835.868	346
835.919	342
835.969	353
836.02	335
836.071	360
836.122	356
836.172	337
836.223	335
836.274	348
836.325	342
836.375	338
836.426	320
836.477	332
836.528	325
836.578	335
836.629	334
836.68	337
836.73	317
836.781	347
836.832	352
836.883	338
836.933	325
836.984	321
837.035	330
837.086	342
837.136	331
837.187	329
837.238	334
837.288	341
837.339	335
837.39	339
837.441	326
837.491	327
837.542	320
837.593	343
837.643	327
837.694	336
837.745	340
837.796	328
837.846	327
837.897	341
837.948	324
837.999	336
838.049	329
838.1	338
838.151	329
838.201	323
838.252	320
838.303	326
838.354	336
838.404	338
838.455	336
838.506	334
838.556	324
838.607	322
838.658	319
838.708	321
838.759	314
838.81	342
838.861	323
838.911	321
838.962	332
839.013	319
839.063	335
839.114	318
839.165	324
839.216	314
839.266	312
839.317	310
839.368	319
839.418	314
839.469	324
839.52	316
839.57	292
839.621	319
839.672	322
839.722	328
839.773	316
839.824	302
839.875	314
839.925	329
839.976	316
840.027	318
840.077	313
840.128	295
840.179	322
840.229	304
840.28	308
840.331	318
840.381	300
840.432	298
840.483	329
840.534	310
840.584	305
840.635	317
840.686	321
840.736	309
840.787	291
840.838	292
840.888	309
840.939	309
840.99	320
841.04	307
841.091	308
841.142	303
841.192	307
841.243	309
841.294	305
841.344	298
841.395	306
841.446	308
841.496	310
841.547	301
841.598	312
841.648	295
841.699	292
841.75	304
841.8	308
841.851	295
841.902	303
841.952	293
842.003	298
842.054	311
842.104	304
842.155	293
842.206	287
842.256	290
842.307	291
842.358	306
842.408	301
842.459	292
842.51	321
842.56	294
842.611	299
842.662	297
842.712	289
842.763	301
842.814	295
842.864	291
842.915	308
842.966	309
843.016	300
843.067	303
843.118	291
843.168	306
843.219	293
843.269	280
843.32	294
843.371	292
843.421	298
843.472	295
843.523	291
843.573	291
843.624	280
843.675	268
843.725	295
843.776	293
843.827	299
843.877	282
843.928	298
843.979	283
844.029	275
844.08	297
844.13	270
844.181	294
844.232	283
844.282	282
844.333	302
844.384	286
844.434	280
844.485	279
844.536	282
844.586	274
844.637	275
844.687	283
844.738	293
844.789	277
844.839	278
844.89	272
844.941	262
844.991	277
845.042	284
845.092	289
845.143	272
845.194	270
845.244	273
845.295	268
845.346	275
845.396	287
845.447	280
845.497	271
845.548	283
845.599	286
845.649	275
845.7	272
845.75	267
845.801	269
845.852	282
845.902	284
845.953	289
846.004	278
846.054	275
846.105	278
846.155	269
846.206	274
846.257	281
846.307	283
846.358	277
846.409	290
846.459	286
846.51	259
846.56	271
846.611	283
846.661	264
846.712	271
846.763	270
846.813	283
846.864	283
846.915	253
846.965	262
847.016	272
847.066	255
847.117	285
847.168	274
847.218	268
847.269	277
847.319	267
847.37	279
847.421	274
847.471	277
847.522	272
847.572	266
847.623	286
847.674	281
847.724	275
847.775	262
847.825	268
847.876	264
847.926	266
847.977	258
848.028	253
848.078	251
848.129	261
848.179	256
848.23	258
848.281	258
848.331	255
848.382	259
848.432	257
848.483	257
848.534	265
848.584	242
848.635	277
848.685	254
848.736	259
848.786	261
848.837	269
848.888	265
848.938	258
848.989	261
849.039	274
849.09	253
849.14	264
849.191	261
849.242	276
849.292	274
849.343	263
849.393	239
849.444	250
849.494	258
849.545	257
849.596	257
849.646	254
849.697	260
849.747	254
849.798	242
849.848	246
849.899	255
849.95	243
850	249
850.051	250
850.101	259
850.152	248
850.202	244
850.253	245
850.303	250
850.354	243
850.405	235
850.455	259
850.506	245
850.556	230
850.607	271
850.657	255
850.708	252
850.758	233
850.809	251
850.86	245
850.91	245
850.961	251
851.011	246
851.062	241
851.112	241
851.163	236
851.213	254
851.264	252
851.314	242
851.365	235
851.416	234
851.466	239
851.517	261
851.567	239
851.618	254
851.668	258
851.719	241
851.769	239
851.82	249
851.87	245
851.921	235
851.971	236
852.022	241
852.073	245
852.123	247
852.174	235
852.224	243
852.275	241
852.325	244.037
852.376	243.867
852.426	243.9
852.477	242.922
852.527	244.148
852.578	246.341
852.628	242.804
852.679	228.826
852.729	257.384
852.78	243.087
852.831	243.693
852.881	231.042
852.932	230.611
852.982	227.682
853.033	230.545
853.083	232.294
853.134	230.398
853.184	228
853.235	240.569
853.285	237.882
853.336	239.966
853.386	232.15
853.437	221.969
853.487	234.25
853.538	220.741
853.588	240.518
853.639	234.753
853.689	237.284
853.74	229.586
853.79	236.699
853.841	223.042
853.891	223.551
853.942	224.667
853.992	237.535
854.043	231.951
854.093	226.699
854.144	224.27
854.194	226.665
854.245	232.565
854.295	230.791
854.346	232.269
854.396	228.176
854.447	220.614
854.497	233.328
854.548	225.329
854.598	227.527
854.649	226.243
854.699	225.925
854.75	220.053
854.8	227.113
854.851	223.145
854.901	224.282
854.952	216.379
855.002	223.079
855.053	225.057
855.103	219.901
855.154	232.867
855.204	216.152
855.255	224.214
855.305	220.758
855.356	225.62
855.406	230.038
855.457	219.362
855.507	224.742
855.558	227.284
855.608	218.671
855.659	212.952
855.709	219.014
855.76	220.558
855.81	236.743
855.861	225.773
855.911	218.657
855.962	219.311
856.012	228.373
856.063	215.54
856.113	214.911
856.164	219.746
856.214	214.704
856.265	209.394
856.315	219.758
856.366	222.847
856.416	211.597
856.467	217.754
856.517	224.161
856.568	218.845
856.618	215.373
856.668	217.98
856.719	212.652
856.769	210.611
856.82	220.702
856.87	215.452
856.921	217.191
856.971	229.246
857.022	223.308
857.072	215.371
857.123	211.672
857.173	218.682
857.224	220.856
857.274	220.912
857.325	226.183
857.352	224
857.403	219
857.453	214
857.504	212
857.555	210
857.606	203
857.656	203
857.707	212
857.758	217
857.809	219
857.859	218
857.91	206
857.961	203
858.012	203
858.063	225
858.113	208
858.164	212
858.215	203
858.266	214
858.316	211
858.367	205
858.418	221
858.469	216
858.519	211
858.57	214
858.621	209
858.672	205
858.722	197
858.773	201
858.824	216
858.875	201
858.925	212
858.976	215
859.027	219
859.078	209
859.128	207
859.179	210
859.23	193
859.281	210
859.331	211
859.382	214
859.433	219
859.483	214
859.534	191
859.585	198
859.636	206
859.686	205
859.737	212
859.788	199
859.839	211
859.889	202
859.94	210
859.991	199
860.042	207
860.092	203
860.143	199
860.194	207
860.245	202
860.295	205
860.346	200
860.397	197
860.447	198
860.498	194
860.549	208
860.6	194
860.65	206
860.701	216
860.752	200
860.802	200
860.853	211
860.904	201
860.955	190
861.005	199
861.056	192
861.107	190
861.158	198
861.208	192
861.259	195
861.31	205
861.36	198
861.411	202
861.462	194
861.513	212
861.563	202
861.614	193
861.665	199
861.715	184
861.766	209
861.817	189
861.868	202
861.918	186
861.969	194
862.02	200
862.07	199
862.121	192
862.172	198
862.223	182
862.273	199
862.324	196
862.375	193
862.425	195
862.476	199
862.527	189
862.577	188
862.628	200
862.679	191
862.73	195
862.78	187
862.831	179
862.882	208
862.932	197
862.983	191
863.034	191
863.084	201
863.135	196
863.186	201
863.237	188
863.287	190
863.338	197
863.389	192
863.439	175
863.49	193
863.541	185
863.591	190
863.642	183
863.693	205
863.744	192
863.794	183
863.845	180
863.896	190
863.946	186
863.997	193
864.048	181
864.098	186
864.149	181
864.2	193
864.25	176
864.301	183
864.352	189
864.402	193
864.453	185
864.504	195
864.555	173
864.605	180
864.656	181
864.707	191
864.757	189
864.808	187
864.859	178
864.909	193
864.96	181
865.011	181
865.061	173
865.112	180
865.163	192
865.213	189
865.264	184
865.315	185
865.365	181
865.416	192
865.467	182
865.517	170
865.568	185
865.619	183
865.669	187
865.72	194
865.771	182
865.821	185
865.872	185
865.923	186
865.973	184
866.024	169
866.075	182
866.125	184
866.176	186
866.227	185
866.277	175
866.328	174
866.379	186
866.429	173
866.48	175
866.531	189
866.581	181
866.632	175
866.683	180
866.733	176
866.784	187
866.835	185
866.885	172
866.936	178
866.987	177
867.037	181
867.088	177
867.138	167
867.189	181
867.24	164
867.29	172
867.341	184
867.392	174
867.442	174
867.493	168
867.544	178
867.594	177
867.645	177
867.696	177
867.746	170
867.797	169
867.848	186
867.898	172
867.949	174
867.999	180
868.05	178
868.101	172
868.151	183
868.202	175
868.253	176
868.303	181
868.354	174
868.405	194
868.455	173
868.506	171
868.556	179
868.607	163
868.658	169
868.708	176
868.759	181
868.81	176
868.86	169
868.911	176
868.961	174
869.012	177
869.063	178
869.113	168
869.164	169
869.215	178
869.265	169
869.316	171
869.367	163
869.417	161
869.468	178
869.518	172
869.569	168
869.62	178
869.67	171
869.721	170
869.771	161
869.822	177
869.873	171
869.923	163
869.974	176
870.025	176
870.075	156
870.126	169
870.176	168
870.227	163
870.278	171
870.328	162
870.379	159
870.43	155
870.48	157
870.531	154
870.581	159
870.632	180
870.683	167
870.733	152
870.784	148
870.834	173
870.885	166
870.936	169
870.986	167
871.037	163
871.087	162
871.138	165
871.189	168
871.239	179
871.29	160
871.34	160
871.391	163
871.442	165
871.492	174
871.543	164
871.593	167
871.644	156
871.695	149
871.745	165
871.796	158
871.846	160
871.897	163
871.948	150
871.998	159
872.049	164
872.099	163
872.15	161
872.201	156
872.251	164
872.302	153
872.352	147
872.403	154
872.453	174
872.504	167
872.555	162
872.605	148
872.656	163
872.706	166
872.757	160
872.808	145
872.858	172
872.909	159
872.959	154
873.01	164
873.06	147
873.111	161
873.162	146
873.212	147
873.263	154
873.313	158
873.364	155
873.415	153
873.465	154
873.516	157
873.566	150
873.617	157
873.667	159
873.718	157
873.769	152
873.819	164
873.87	160
873.92	153
873.971	150
874.021	152
874.072	149
874.123	152
874.173	148
874.224	155
874.274	157
874.325	160
874.375	145
874.426	154
874.477	165
874.527	159
874.578	158
874.628	140
874.679	152
874.729	153
874.78	149
874.83	156
874.881	152
874.932	145
874.982	138
875.033	149
875.083	152
875.134	157
875.184	162
875.235	149
875.285	163
875.336	148
875.387	145
875.437	153
875.488	147
875.538	151
875.589	153
875.639	157
875.69	158
875.74	151
875.791	160
875.841	159
875.892	163
875.943	156
875.993	150
876.044	146
876.094	144
876.145	146
876.195	141
876.246	153
876.296	150
876.347	153
876.397	143
876.448	142
876.499	146
876.549	154
876.6	136
876.65	146
876.701	146
876.751	147
876.802	142
876.852	150
876.903	151
876.953	147
877.004	149
877.054	143
877.105	148
877.155	143
877.206	144
877.257	135
877.307	142
877.358	152
877.408	146
877.459	141
877.509	155
877.56	144
877.61	144
877.661	141
877.711	144
877.762	147
877.812	146
877.863	148
877.913	155
877.964	148
878.014	145
878.065	131
878.115	140
878.166	149
878.216	144
878.267	138
878.318	145
878.368	137
878.419	140
878.469	138
878.52	141
878.57	149
878.621	141
878.671	138
878.722	144
878.772	146
878.823	149
878.873	136
878.924	138
878.974	138
879.025	143
879.075	141
879.126	135
879.176	145
879.227	135
879.277	151
879.328	141
879.378	146
879.429	138
879.479	139
879.53	136
879.58	136
879.631	143
879.681	134
879.732	130
879.782	131
879.833	138
879.883	134
879.934	138
879.984	145
880.035	134
880.085	138
880.136	139
880.186	129
880.237	137
880.287	144
880.338	145
880.388	144
880.439	150
880.489	140
880.54	138
880.59	146
880.641	132
880.691	133
880.742	142
880.792	138
880.842	140
880.893	136
880.943	142
880.994	124
881.044	139
881.095	124
881.145	141
881.196	137
881.246	129
881.297	135
881.347	152
881.398	139
881.448	141
881.499	126
881.549	135
881.6	141
881.65	130
881.701	137
881.751	133
881.802	128
881.852	135
881.902	129
881.953	126
882.003	134
882.054	127
882.104	133
882.155	130
882.205	138
882.256	145
882.306	137
882.357	127
882.407	139
882.458	134
882.508	121
882.559	137
882.609	131
882.659	140
882.71	135
882.76	126
882.811	135
882.861	132
882.912	124
882.962	124
883.013	140
883.063	136
883.114	133
883.164	125
883.214	145
883.265	134
883.315	127
883.366	125
883.416	127
883.467	132
883.517	113
883.568	126
883.618	128
883.669	129
883.719	128
883.769	134
883.82	125
883.87	129
883.921	128
883.971	128
884.022	126
884.072	135
884.123	122
884.173	126
884.223	133
884.274	131
884.324	126
884.375	124
884.425	134
884.476	139
884.526	124
884.577	133
884.627	134
884.677	129
884.728	134
884.778	132
884.829	127
884.879	129
884.93	115
884.98	129
885.03	137
885.081	126
885.131	119
885.182	125
885.232	127
885.283	126
885.333	126
885.383	117
885.434	130
885.484	121
885.535	125
885.585	114
885.635	124
885.686	124
885.736	130
885.787	123
885.837	122
885.888	124
885.938	116
885.988	126
886.039	123
886.089	129
886.14	120
886.19	124
886.241	111
886.291	132
886.341	120
886.392	123
886.442	126
886.493	115
886.543	117
886.593	122
886.644	116
886.694	127
886.745	126
886.795	113
886.845	121
886.896	119
886.946	111
886.997	121
887.047	121
887.097	116
887.148	118
887.198	111
887.249	125
887.299	116
887.349	123
887.4	108
887.45	117
887.501	128
887.551	124
887.602	117
887.652	120
887.702	116
887.753	120
887.803	122
887.853	119
887.904	119
887.954	115
888.005	117
888.055	120
888.105	114
888.156	116
888.206	110
888.257	117
888.307	127
888.357	130
888.408	115
888.458	113
888.509	113
888.559	115
888.609	113
888.66	119
888.71	120
888.76	119
888.811	117
888.861	120
888.912	120
888.962	110
889.012	118
889.063	106
889.113	118
889.163	109
889.214	106
889.264	117
889.315	111
889.365	122
889.415	115
889.466	118
889.516	112
889.566	121
889.617	104
889.667	116
889.718	106
889.768	119
889.818	109
889.869	121
889.919	119
889.969	109
890.02	117
890.07	115
890.12	108
890.171	110
890.221	100
890.272	110
890.322	124
890.372	114
890.423	106
890.473	113
890.523	105
890.574	116
890.624	102
890.674	104
890.725	117
890.775	113
890.826	118
890.876	118
890.926	115
890.977	117
891.027	114
891.077	109
891.128	111
891.178	112
891.228	106
891.279	109
891.329	116
891.379	122
891.43	104
891.48	115
891.53	120
891.581	112
891.631	102
891.681	118
891.732	120
891.782	125
891.832	111
891.883	115
891.933	121
891.983	114
892.034	95
892.084	113
892.134	110
892.185	112
892.235	107
892.286	106
892.336	108
892.386	110
892.437	113
892.487	111
892.537	123
892.587	123
892.638	101
892.688	113
892.738	108
892.789	108
892.839	103
892.889	109
892.94	118
892.99	121
893.04	91
893.091	112
893.141	117
893.191	109
893.242	96
893.292	111
893.342	110
893.393	115
893.443	102
893.493	110
893.544	100
893.594	105
893.644	88
893.695	108
893.745	107
893.795	108
893.846	105
893.896	105
893.946	111
893.996	101
894.047	94
894.097	101
894.147	109
894.198	108
894.248	103
894.298	101
894.349	112
894.399	99
894.449	103
894.5	103
894.55	103
894.6	95
894.65	102
894.701	100
894.751	93
894.801	103
894.852	98
894.902	101
894.952	102
895.003	98
895.053	101
895.103	108
895.153	104
895.204	96
895.254	92
895.304	93
895.355	105
895.405	97
895.455	106
895.505	101
895.556	107
895.606	99
895.656	100
895.707	96
895.757	106
895.807	106
895.858	107
895.908	106
895.958	107
896.008	103
896.059	99
896.109	102
896.159	99
896.21	109
896.26	92
896.31	97
896.36	99
896.411	110
896.461	106
896.511	87
896.561	95
896.612	99
896.662	96
896.712	94
896.763	101
896.813	93
896.863	94
896.913	96
896.964	99
897.014	99
897.064	94
897.115	91
897.165	103
897.215	97
897.265	97
897.316	100
897.366	96
897.416	99
897.466	91
897.517	107
897.567	100
897.617	96
897.667	95
897.718	92
897.768	93
897.818	105
897.868	98
897.919	104
897.969	111
898.019	95
898.069	92
898.12	91
898.17	92
898.22	98
898.27	89
898.321	91
898.371	103
898.421	97
898.471	90
898.522	95
898.572	106
898.622	97
898.672	90
898.723	89
898.773	99
898.823	93
898.873	94
898.924	86
898.974	90
899.024	97
899.074	92
899.125	92.5
899.175	93
899.225	91
899.275	95
899.326	89
899.376	102
899.426	88
899.476	86
899.527	88
899.577	97
899.627	93
899.677	102
899.728	105
899.778	89
899.828	103
899.878	94
899.928	85
899.979	99
