#Acq. time (s)=	3
#Accumulations=	2
#Range (nm)=	520...900
#Windows=	8
#Auto scanning=	Off
#Autofocus=	Off
#AutoExposure=	Off
#Spike filter=	Off
#Delay time (s)=	0
#Binning=	1
#Readout mode=	Signal
#DeNoise=	Off
#ICS correction=	Off
#Dark correction=	Off
#Inst. Process=	Off
#Detector temperature (°C)=	-59.98
#Instrument=	LabRAM HR Evol
#Detector=	Syncerity OE
#Objective=	x50_VIS
#Grating=	600 (500nm)
#ND Filter=	25%
#Laser=	514nm_Edge
#Hole=	199.981
#Range=	Visible
#StageXY=	Marzhauser
#StageZ=	Marzhauser
#X (µm)=	19.4
#Y (µm)=	-924.1
#Z (µm)=	-259.1
#Full time(mm:ss)=	1:32
#Project=	
#Sample=	
#Site=	
#Title=	PL_M2_280424
#Remark=	
#Date=	06.05.2024 16:35
#Acquired=	06.05.2024 16:35:02
520.044	68
520.097	63
520.149	70
520.201	60
520.254	61
520.306	56
520.359	63
520.411	63
520.464	64
520.516	62
520.569	68
520.621	64
520.674	53
520.726	56
520.778	61
520.831	62
520.883	67
520.936	61
520.988	68
521.041	63
521.093	60
521.146	54
521.198	67
521.25	55
521.303	69
521.355	67
521.408	57
521.46	54
521.513	64
521.565	59
521.617	67
521.67	59
521.722	54
521.775	51
521.827	52
521.88	62
521.932	66
521.984	58
522.037	57
522.089	59
522.142	59
522.194	50
522.247	61
522.299	54
522.352	59
522.404	65
522.456	63
522.509	62
522.561	59
522.614	65
522.666	66
522.719	62
522.771	57
522.823	55
522.876	58
522.928	63
522.981	64
523.033	64
523.086	62
523.138	63
523.19	65
523.243	64
523.295	60
523.348	60
523.4	67
523.453	64
523.505	62
523.557	55
523.61	55
523.662	62
523.715	55
523.767	48
523.82	62
523.872	58
523.924	63
523.977	51
524.029	67
524.082	65
524.134	56
524.186	60
524.239	65
524.291	63
524.344	65
524.396	62
524.449	55
524.501	60
524.553	67
524.606	63
524.658	66
524.711	58
524.763	62
524.815	58
524.868	68
524.92	65
524.973	63
525.025	61
525.078	58
525.13	61
525.182	67
525.235	59
525.287	55
525.34	64
525.392	63
525.444	63
525.497	61
525.549	59
525.602	51
525.654	50
525.706	55
525.759	57
525.811	58
525.864	59
525.916	57
525.969	56
526.021	62
526.073	64
526.126	57
526.178	57
526.231	58
526.283	60
526.335	58
526.388	64
526.44	61
526.493	59
526.545	62
526.597	59
526.65	58
526.702	55
526.755	57
526.807	54
526.859	57
526.912	62
526.964	54
527.017	62
527.069	54
527.121	62
527.174	55
527.226	62
527.279	62
527.331	64
527.383	55
527.436	56
527.488	60
527.54	65
527.593	62
527.645	59
527.698	57
527.75	52
527.802	58
527.855	52
527.907	62
527.96	57
528.012	59
528.064	59
528.117	63
528.169	60
528.222	58
528.274	53
528.326	55
528.379	57
528.431	57
528.484	62
528.536	53
528.588	61
528.641	60
528.693	63
528.745	68
528.798	62
528.85	59
528.903	59
528.955	56
529.007	60
529.06	59
529.112	64
529.164	57
529.217	57
529.269	61
529.322	61
529.374	49
529.426	59
529.479	58
529.531	64
529.584	58
529.636	58
529.688	58
529.741	61
529.793	61
529.845	60
529.898	59
529.95	60
530.003	61
530.055	69
530.107	54
530.16	67
530.212	54
530.264	57
530.317	62
530.369	67
530.422	58
530.474	54
530.526	61
530.579	69
530.631	65
530.683	60
530.736	54
530.788	69
530.841	65
530.893	66
530.945	55
530.998	60
531.05	53
531.102	70
531.155	64
531.207	69
531.259	58
531.312	62
531.364	60
531.417	63
531.469	62
531.521	51
531.574	56
531.626	70
531.678	60
531.731	65
531.783	56
531.835	68
531.888	64
531.94	59
531.992	61
532.045	59
532.097	62
532.15	78
532.202	65
532.254	65
532.307	61
532.359	66
532.411	66
532.464	74
532.516	56
532.568	74
532.621	63
532.673	70
532.726	66
532.778	64
532.83	71
532.883	72
532.935	63
532.987	68
533.04	62
533.092	65
533.144	74
533.197	67
533.249	71
533.301	67
533.354	65
533.406	72
533.458	63
533.511	78
533.563	68
533.615	67
533.668	71
533.72	70
533.773	75
533.825	74
533.877	75
533.93	76
533.982	77
534.034	70
534.087	73
534.139	72
534.191	69
534.244	75
534.296	75
534.348	75
534.401	78
534.453	87
534.505	83
534.558	80
534.61	77
534.662	88
534.715	80
534.767	99
534.819	89
534.872	91
534.924	91
534.976	90
535.029	90
535.081	86
535.133	90
535.186	105
535.238	87
535.29	94
535.343	87
535.395	96
535.447	86
535.5	96
535.552	96
535.604	88
535.657	83
535.709	90
535.761	90
535.814	93
535.866	78
535.918	96
535.971	96
536.023	91
536.075	89
536.128	78
536.18	90
536.232	82
536.285	81
536.337	88
536.389	82
536.442	93
536.494	80
536.546	77
536.599	78
536.651	83
536.703	72
536.755	73
536.808	72
536.86	82
536.912	91
536.965	81
537.017	82
537.069	80
537.122	77
537.174	86
537.226	78
537.279	86
537.331	74
537.383	82
537.436	87
537.488	78
537.54	84
537.593	75
537.645	82
537.697	80
537.75	82
537.802	81
537.854	73
537.906	85
537.959	85
538.011	82
538.063	81
538.116	81
538.168	85
538.22	87
538.273	85
538.325	89
538.377	90
538.43	86
538.482	82
538.534	90
538.586	79
538.639	77
538.691	84
538.743	81
538.796	83
538.848	88
538.9	78
538.953	98
539.005	89
539.057	90
539.109	83
539.162	98
539.214	90
539.266	90
539.319	93
539.371	93
539.423	87
539.476	86
539.528	93
539.58	80
539.633	89
539.685	98
539.737	95
539.789	99
539.842	99
539.894	87
539.946	96
539.999	93
540.051	100
540.103	100
540.155	100
540.208	98
540.26	96
540.312	90
540.365	105
540.417	98
540.469	93
540.521	87
540.574	90
540.626	86
540.678	95
540.731	84
540.783	87
540.835	92
540.888	101
540.94	92
540.992	95
541.044	90
541.097	104
541.149	92
541.201	98
541.254	99
541.306	98
541.358	93
541.41	102
541.463	100
541.515	112
541.567	87
541.62	103
541.672	90
541.724	95
541.776	90
541.829	92
541.881	100
541.933	105
541.985	99
542.038	106
542.09	95
542.142	105
542.195	91
542.247	100
542.299	96
542.351	92
542.404	92
542.456	101
542.508	107
542.56	88
542.613	90
542.665	92
542.717	101
542.77	111
542.822	96
542.874	103
542.926	100
542.979	102
543.031	100
543.083	92
543.135	106
543.188	105
543.24	97
543.292	109
543.344	93
543.397	100
543.449	98
543.501	106
543.554	106
543.606	107
543.658	110
543.71	104
543.763	112
543.815	106
543.867	99
543.919	114
543.972	105
544.024	109
544.076	108
544.128	110
544.181	115
544.233	110
544.285	106
544.337	112
544.39	113
544.442	115
544.494	115
544.547	111
544.599	105
544.651	115
544.703	117
544.755	106
544.808	110
544.86	121
544.912	113
544.965	123
545.017	121
545.069	121
545.121	113
545.174	120
545.226	125
545.278	117
545.33	110
545.383	107
545.435	108
545.487	123
545.539	114
545.591	113
545.644	115
545.696	120
545.748	121
545.8	117
545.853	119
545.905	119
545.957	119
546.009	124
546.062	119
546.114	125
546.166	115
546.218	126
546.271	117
546.323	123
546.375	118
546.427	128
546.48	124
546.532	137
546.584	114
546.636	131
546.689	134
546.741	124
546.793	129
546.845	119
546.898	122
546.95	127
547.002	117
547.054	133
547.106	143
547.159	132
547.211	128
547.263	135
547.315	138
547.368	145
547.42	133
547.472	144
547.524	145
547.577	142
547.629	139
547.681	145
547.733	143
547.785	152
547.838	146
547.89	151
547.942	149
547.994	145
548.047	141
548.099	133
548.151	149
548.203	161
548.255	145
548.308	158
548.36	154
548.412	157
548.464	134
548.517	150
548.569	147
548.621	145
548.673	149
548.725	152
548.778	145
548.83	157
548.882	158
548.934	146
548.987	160
549.039	144
549.091	153
549.143	158
549.195	152
549.248	160
549.3	135
549.352	152
549.404	154
549.456	161
549.509	155
549.561	159
549.613	157
549.665	163
549.718	161
549.77	165
549.822	154
549.874	169
549.926	165
549.979	178
550.031	184
550.083	178
550.135	160
550.187	177
550.24	177
550.292	185
550.344	182
550.396	192
550.448	167
550.501	180
550.553	192
550.605	179
550.657	180
550.709	185
550.762	189
550.814	198
550.866	177
550.918	207
550.97	193
551.023	193
551.075	207
551.127	217
551.179	213
551.231	226
551.284	221
551.336	217
551.388	225
551.44	219
551.492	236
551.545	254
551.597	245
551.649	254
551.701	266
551.753	283
551.806	271
551.858	293
551.91	311
551.962	315
552.014	339
552.067	354
552.119	403
552.171	426
552.223	449
552.275	543
552.327	651
552.38	800
552.432	1196
552.484	2299
552.536	4763
552.588	8879
552.641	16453
552.693	29686
552.745	42795
552.797	27704
552.849	10927
552.901	3653
552.954	1644
553.006	1045
553.058	778
553.11	619
553.162	527
553.215	463
553.267	424
553.319	367
553.371	357
553.423	330
553.475	323
553.528	306
553.58	293
553.632	304
553.684	274
553.736	262
553.788	262
553.841	272
553.893	233
553.945	241
553.997	246
554.049	251
554.102	242
554.154	237
554.206	238
554.258	251
554.31	257
554.362	243
554.414	245
554.467	226
554.519	243
554.571	236
554.623	223
554.675	226
554.727	239
554.78	235
554.832	234
554.884	231
554.936	252
554.988	216
555.04	236
555.093	241
555.145	235
555.197	250
555.249	229
555.301	239
555.353	246
555.406	232
555.458	235
555.51	244
555.562	228
555.614	247
555.666	250
555.719	252
555.771	233
555.823	258
555.875	235
555.927	265
555.979	242
556.031	243
556.084	242
556.136	237
556.188	258
556.24	245
556.292	251
556.344	249
556.396	256
556.449	249
556.501	258
556.553	269
556.605	255
556.657	270
556.709	263
556.762	266
556.814	266
556.866	264
556.918	267
556.97	257
557.022	271
557.074	271
557.127	268
557.179	269
557.231	279
557.283	252
557.335	280
557.387	267
557.439	261
557.492	267
557.544	292
557.596	275
557.648	289
557.7	280
557.752	286
557.804	296
557.856	286
557.909	279
557.961	279
558.013	283
558.065	292
558.117	289
558.169	301
558.221	283
558.273	296
558.326	279
558.378	292
558.43	303
558.482	293
558.534	280
558.586	293
558.638	297
558.691	302
558.743	307
558.795	309
558.847	283
558.899	299
558.951	294
559.003	299
559.055	295
559.108	278
559.16	304
559.212	296
559.264	286
559.316	314
559.368	299
559.42	307
559.472	305
559.525	311
559.577	312
559.629	306
559.681	313
559.733	326
559.785	307
559.837	316
559.889	317
559.941	310
559.994	324
560.046	318
560.098	318
560.15	335
560.202	338
560.254	321
560.306	337
560.358	331
560.41	317
560.463	324
560.515	329
560.567	331
560.619	336
560.671	340
560.723	332
560.775	343
560.827	333
560.879	330
560.932	337
560.984	337
561.036	347
561.088	334
561.14	338
561.192	346
561.244	341
561.296	344
561.348	341
561.4	364
561.453	342
561.505	357
561.557	361
561.609	380
561.661	348
561.713	371
561.765	354
561.817	362
561.869	359
561.921	349
561.974	371
562.026	355
562.078	361
562.13	364
562.182	367
562.234	378
562.286	381
562.338	389
562.39	384
562.442	378
562.494	358
562.547	379
562.599	372
562.651	391
562.703	393
562.755	379
562.807	388
562.859	407
562.911	393
562.963	389
563.015	396
563.067	411
563.12	395
563.172	403
563.224	403
563.276	414
563.328	408
563.38	419
563.432	420
563.484	418
563.536	412
563.588	427
563.64	413
563.692	428
563.744	422
563.797	418
563.849	437
563.901	447
563.953	442
564.005	438
564.057	460
564.109	472
564.161	459
564.213	452
564.265	472
564.317	464
564.369	467
564.421	454
564.474	471
564.526	456
564.578	470
564.63	465
564.682	460
564.734	473
564.786	470
564.838	455
564.89	450
564.942	468
564.994	437
565.046	452
565.098	463
565.15	477
565.202	456
565.255	478
565.307	471
565.359	472
565.411	479
565.463	482
565.515	483
565.567	479
565.619	481
565.671	466
565.723	471
565.775	494
565.827	487
565.879	497
565.931	481
565.983	480
566.035	498
566.087	498
566.139	505
566.192	501
566.244	499
566.296	494
566.348	482
566.4	498
566.452	513
566.504	509
566.556	517
566.608	530
566.66	482
566.712	522
566.764	505
566.816	506
566.868	533
566.92	551
566.972	535
567.024	513
567.076	524
567.128	532
567.18	514
567.232	530
567.285	545
567.337	537
567.389	539
567.441	525
567.493	555
567.545	521
567.597	562
567.649	518
567.701	541
567.753	555
567.805	539
567.857	555
567.909	560
567.961	558
568.013	586
568.065	571
568.117	585.835
568.169	558.005
568.221	569.918
568.273	572.803
568.325	577.509
568.377	582.116
568.429	585.203
568.481	596.302
568.533	580.066
568.585	609.344
568.637	590.321
568.69	617.535
568.742	609.987
568.794	580.814
568.846	610.318
568.898	594.07
568.95	595.026
569.002	590.071
569.054	611.748
569.106	609.979
569.158	607.21
569.21	622.352
569.262	620.486
569.314	615.626
569.366	611.614
569.418	625.974
569.47	623.712
569.522	627.468
569.574	640.108
569.626	623.368
569.678	638.681
569.73	645.686
569.782	633.146
569.834	650.423
569.886	638.215
569.938	640.899
569.99	661.044
570.042	665.422
570.094	655.269
570.146	650.717
570.198	660.358
570.25	680.252
570.302	683.889
570.354	662.883
570.406	669.973
570.458	686.67
570.51	706.127
570.562	698.878
570.614	705.582
570.666	681.326
570.718	707.697
570.77	706.724
570.822	719.916
570.874	723.945
570.926	736.304
570.978	717.736
571.03	732.233
571.082	728.636
571.134	753.068
571.186	758.203
571.238	759.077
571.29	771.19
571.342	762.92
571.394	776.16
571.446	766.233
571.498	780.03
571.55	806.474
571.602	819.788
571.654	813.285
571.706	816.121
571.758	819.677
571.81	836.501
571.862	841.443
571.914	839.615
571.966	840.895
572.018	863.032
572.07	868.533
572.122	867.598
572.174	894.029
572.226	922.68
572.278	912.484
572.33	914.725
572.382	925.659
572.434	938.194
572.486	939.243
572.538	953.46
572.59	974.371
572.642	973.98
572.694	988.666
572.746	993.075
572.798	1003.66
572.85	1012.41
572.902	1022.24
572.954	1031.87
573.006	1061.5
573.058	1060.1
573.11	1078.36
573.162	1076.33
573.214	1078.16
573.266	1098.57
573.312	1100
573.364	1129
573.416	1150
573.469	1178
573.521	1192
573.573	1215
573.625	1222
573.677	1253
573.73	1217
573.782	1273
573.834	1302
573.886	1309
573.938	1332
573.991	1330
574.043	1369
574.095	1412
574.147	1415
574.199	1431
574.252	1487
574.304	1482
574.356	1505
574.408	1516
574.46	1556
574.513	1635
574.565	1591
574.617	1686
574.669	1653
574.721	1729
574.774	1783
574.826	1766
574.878	1829
574.93	1811
574.982	1848
575.035	1889
575.087	1917
575.139	1935
575.191	1991
575.243	1969
575.296	1979
575.348	2056
575.4	2049
575.452	2059
575.504	2108
575.556	2144
575.609	2152
575.661	2157
575.713	2162
575.765	2188
575.817	2234
575.87	2225
575.922	2207
575.974	2214
576.026	2204
576.078	2207
576.131	2211
576.183	2192
576.235	2187
576.287	2170
576.339	2154
576.391	2137
576.444	2153
576.496	2109
576.548	2126
576.6	2088
576.652	2092
576.705	2057
576.757	1997
576.809	2035
576.861	2013
576.913	1970
576.965	1921
577.018	1934
577.07	1921
577.122	1884
577.174	1848
577.226	1825
577.279	1772
577.331	1779
577.383	1756
577.435	1754
577.487	1770
577.539	1696
577.592	1677
577.644	1664
577.696	1677
577.748	1641
577.8	1616
577.852	1587
577.905	1628
577.957	1529
578.009	1577
578.061	1543
578.113	1522
578.165	1506
578.218	1500
578.27	1516
578.322	1476
578.374	1465
578.426	1467
578.478	1454
578.531	1446
578.583	1454
578.635	1421
578.687	1437
578.739	1430
578.791	1407
578.844	1418
578.896	1435
578.948	1376
579	1389
579.052	1397
579.104	1350
579.157	1354
579.209	1379
579.261	1349
579.313	1370
579.365	1347
579.417	1358
579.47	1347
579.522	1377
579.574	1350
579.626	1333
579.678	1376
579.73	1322
579.782	1388
579.835	1369
579.887	1363
579.939	1345
579.991	1386
580.043	1354
580.095	1377
580.148	1368
580.2	1367
580.252	1388
580.304	1343
580.356	1370
580.408	1358
580.46	1343
580.513	1359
580.565	1375
580.617	1340
580.669	1369
580.721	1363
580.773	1348
580.826	1363
580.878	1381
580.93	1362
580.982	1366
581.034	1366
581.086	1402
581.138	1378
581.191	1336
581.243	1374
581.295	1409
581.347	1359
581.399	1381
581.451	1375
581.503	1374
581.556	1379
581.608	1382
581.66	1402
581.712	1399
581.764	1379
581.816	1394
581.868	1406
581.92	1421
581.973	1411
582.025	1412
582.077	1379
582.129	1434
582.181	1435
582.233	1445
582.285	1441
582.338	1423
582.39	1445
582.442	1446
582.494	1475
582.546	1470
582.598	1481
582.65	1423
582.703	1467
582.755	1460
582.807	1464
582.859	1488
582.911	1454
582.963	1470
583.015	1507
583.067	1533
583.12	1493
583.172	1506
583.224	1513
583.276	1547
583.328	1524
583.38	1478
583.432	1511
583.484	1503
583.537	1517
583.589	1508
583.641	1538
583.693	1537
583.745	1520
583.797	1543
583.849	1539
583.901	1549
583.953	1577
584.006	1564
584.058	1589
584.11	1597
584.162	1585
584.214	1580
584.266	1630
584.318	1596
584.37	1572
584.423	1628
584.475	1603
584.527	1619
584.579	1641
584.631	1607
584.683	1667
584.735	1674
584.787	1611
584.839	1671
584.892	1638
584.944	1681
584.996	1681
585.048	1713
585.1	1711
585.152	1688
585.204	1690
585.256	1728
585.308	1702
585.361	1686
585.413	1738
585.465	1721
585.517	1722
585.569	1777
585.621	1758
585.673	1739
585.725	1703
585.777	1766
585.83	1747
585.882	1759
585.934	1772
585.986	1781
586.038	1796
586.09	1787
586.142	1787
586.194	1842
586.246	1780
586.298	1782
586.351	1843
586.403	1795
586.455	1848
586.507	1863
586.559	1857
586.611	1854
586.663	1861
586.715	1851
586.767	1855
586.819	1824
586.872	1847
586.924	1810
586.976	1860
587.028	1856
587.08	1867
587.132	1852
587.184	1873
587.236	1879
587.288	1916
587.34	1916
587.392	1896
587.445	1876
587.497	1919
587.549	1894
587.601	1876
587.653	1931
587.705	1892
587.757	1925
587.809	1868
587.861	1924
587.913	1902
587.965	1909
588.018	1898
588.07	1903
588.122	1944
588.174	1933
588.226	1934
588.278	1938
588.33	1958
588.382	1917
588.434	1939
588.486	1943
588.538	1942
588.59	1943
588.642	1936
588.695	1954
588.747	1969
588.799	1948
588.851	1931
588.903	1937
588.955	1967
589.007	1925
589.059	1969
589.111	1962
589.163	1998
589.215	1954
589.267	1989
589.319	2021
589.372	2034
589.424	2005
589.476	2004
589.528	1977
589.58	2013
589.632	2025
589.684	2010
589.736	2003
589.788	2016
589.84	1995
589.892	2020
589.944	2045
589.996	2023
590.048	2031
590.101	2005
590.153	1992
590.205	2013
590.257	1950
590.309	1974
590.361	2007
590.413	1992
590.465	2005
590.517	2023
590.569	2007
590.621	2020
590.673	1982
590.725	1977
590.777	2022
590.829	1997
590.881	1989
590.933	1958
590.986	1961
591.038	1981
591.09	1977
591.142	1958
591.194	1972
591.246	1959
591.298	1982
591.35	1972
591.402	1952
591.454	1951
591.506	1949
591.558	1953
591.61	1930
591.662	1959
591.714	1925
591.766	1940
591.818	1899
591.87	1913
591.923	1886
591.975	1926
592.027	1931
592.079	1922
592.131	1912
592.183	1883
592.235	1891
592.287	1891
592.339	1910
592.391	1936
592.443	1905
592.495	1907
592.547	1933
592.599	1915
592.651	1905
592.703	1897
592.755	1926
592.807	1916
592.859	1907
592.911	1913
592.963	1914
593.015	1898
593.068	1948
593.12	1907
593.172	1914
593.224	1898
593.276	1864
593.328	1888
593.38	1900
593.432	1928
593.484	1921
593.536	1900
593.588	1909
593.64	1927
593.692	1915
593.744	1938
593.796	1894
593.848	1912
593.9	1895
593.952	1976
594.004	1930
594.056	1946
594.108	1927
594.16	1904
594.212	1953
594.264	1938
594.316	1943
594.368	1933
594.42	1963
594.472	1968
594.524	1942
594.576	1913
594.628	1935
594.68	1964
594.732	1970
594.784	1956
594.837	1970
594.889	1983
594.941	1945
594.993	1954
595.045	1995
595.097	1964
595.149	1978
595.201	1970
595.253	1972
595.305	1960
595.357	1994
595.409	1995
595.461	1979
595.513	1995
595.565	1983
595.617	2004
595.669	1989
595.721	2022
595.773	2057
595.825	1999
595.877	2024
595.929	1985
595.981	2066
596.033	2031
596.085	2044
596.137	2071
596.189	2066
596.241	2106
596.293	2076
596.345	2058
596.397	2095
596.449	2114
596.501	2062
596.553	2076
596.605	2067
596.657	2080
596.709	2122
596.761	2173
596.813	2107
596.865	2121
596.917	2066
596.969	2093
597.021	2112
597.073	2102
597.125	2110
597.177	2105
597.229	2112
597.281	2096
597.333	2099
597.385	2098
597.437	2119
597.489	2122
597.541	2091
597.593	2127
597.645	2087
597.697	2131
597.749	2095
597.801	2088
597.853	2135
597.905	2114
597.957	2143
598.009	2125
598.061	2129
598.113	2099
598.165	2157
598.217	2134
598.269	2161
598.321	2165
598.373	2138
598.425	2139
598.477	2172
598.529	2159
598.581	2147
598.633	2165
598.685	2141
598.737	2195
598.789	2162
598.841	2169
598.893	2113
598.945	2148
598.997	2161
599.049	2168
599.101	2182
599.153	2195
599.205	2181
599.257	2172
599.309	2186
599.361	2181
599.413	2186
599.465	2209
599.517	2219
599.569	2210
599.62	2168
599.672	2174
599.724	2153
599.776	2178
599.828	2206
599.88	2229
599.932	2196
599.984	2211
600.036	2177
600.088	2229
600.14	2182
600.192	2218
600.244	2204
600.296	2182
600.348	2176
600.4	2285
600.452	2184
600.504	2206
600.556	2196
600.608	2216
600.66	2214
600.712	2181
600.764	2177
600.816	2191
600.868	2157
600.92	2224
600.972	2218
601.024	2237
601.076	2204
601.128	2245
601.18	2217
601.232	2197
601.284	2202
601.335	2237
601.387	2182
601.439	2241
601.491	2218
601.543	2210
601.595	2199
601.647	2202
601.699	2231
601.751	2199
601.803	2200
601.855	2187
601.907	2182
601.959	2257
602.011	2251
602.063	2235
602.115	2243
602.167	2200
602.219	2190
602.271	2233
602.323	2251
602.375	2221
602.427	2230
602.478	2237
602.53	2246
602.582	2258
602.634	2235
602.686	2240
602.738	2250
602.79	2212
602.842	2248
602.894	2239
602.946	2275
602.998	2245
603.05	2242
603.102	2249
603.154	2259
603.206	2260
603.258	2231
603.31	2265
603.362	2284
603.413	2266
603.465	2253
603.517	2288
603.569	2304
603.621	2257
603.673	2286
603.725	2279
603.777	2261
603.829	2289
603.881	2267
603.933	2251
603.985	2260
604.037	2268
604.089	2281
604.141	2300
604.193	2271
604.244	2277
604.296	2284
604.348	2296
604.4	2297
604.452	2276
604.504	2285
604.556	2320
604.608	2286
604.66	2283
604.712	2273
604.764	2286
604.816	2295
604.868	2305
604.92	2315
604.971	2349
605.023	2328
605.075	2287
605.127	2321
605.179	2308
605.231	2310
605.283	2312
605.335	2335
605.387	2313
605.439	2281
605.491	2302
605.543	2324
605.594	2330
605.646	2252
605.698	2279
605.75	2309
605.802	2295
605.854	2300
605.906	2280
605.958	2298
606.01	2261
606.062	2286
606.114	2281
606.166	2337
606.217	2333
606.269	2276
606.321	2305
606.373	2289
606.425	2312
606.477	2328
606.529	2291
606.581	2320
606.633	2300
606.685	2307
606.737	2338
606.789	2287
606.84	2263
606.892	2313
606.944	2362
606.996	2286
607.048	2303
607.1	2342
607.152	2320
607.204	2343
607.256	2294
607.308	2321
607.359	2317
607.411	2307
607.463	2336
607.515	2302
607.567	2330
607.619	2329
607.671	2340
607.723	2313
607.775	2271
607.827	2339
607.878	2345
607.93	2326
607.982	2339
608.034	2353
608.086	2359
608.138	2338
608.19	2336
608.242	2321
608.294	2338
608.345	2316
608.397	2381
608.449	2377
608.501	2314
608.553	2356
608.605	2392
608.657	2348
608.709	2373
608.761	2357
608.812	2366
608.864	2375
608.916	2361
608.968	2399
609.02	2413
609.072	2436
609.124	2380
609.176	2393
609.228	2397
609.279	2375
609.331	2396
609.383	2426
609.435	2451
609.487	2433
609.539	2411
609.591	2391
609.643	2418
609.694	2435
609.746	2442
609.798	2427
609.85	2430
609.902	2472
609.954	2462
610.006	2390
610.058	2459
610.109	2451
610.161	2450
610.213	2432
610.265	2434
610.317	2448
610.369	2458
610.421	2479
610.473	2458
610.524	2474
610.576	2464
610.628	2441
610.68	2460
610.732	2432
610.784	2493
610.836	2470
610.887	2472
610.939	2491
610.991	2467
611.043	2502
611.095	2429
611.147	2543
611.199	2484
611.25	2495
611.302	2507
611.354	2463
611.406	2480
611.458	2510
611.51	2512
611.562	2503
611.614	2519
611.665	2512
611.717	2512
611.769	2519
611.821	2516
611.873	2532
611.925	2537
611.977	2564
612.028	2555
612.08	2563
612.132	2558
612.184	2540
612.236	2532
612.288	2547
612.339	2579
612.391	2548
612.443	2572
612.495	2581
612.547	2569
612.599	2546
612.651	2581
612.702	2578
612.754	2557
612.806	2605
612.858	2541
612.91	2588
612.962	2615
613.013	2610
613.065	2615
613.117	2571
613.169	2642
613.221	2596
613.273	2642
613.325	2633
613.376	2621
613.428	2631
613.48	2648
613.532	2675
613.584	2616
613.635	2640
613.687	2674
613.739	2659
613.791	2639
613.843	2676
613.895	2633
613.947	2690
613.998	2688
614.05	2664
614.102	2665
614.154	2680
614.206	2666
614.258	2630
614.309	2731
614.361	2715
614.413	2675
614.465	2710
614.517	2714
614.568	2724
614.62	2745
614.672	2753
614.724	2701
614.776	2755
614.828	2696
614.879	2765
614.931	2716
614.983	2772
615.035	2802
615.087	2773
615.139	2739
615.19	2809
615.242	2787
615.294	2786
615.346	2810
615.398	2769
615.449	2798
615.501	2786
615.553	2808
615.605	2794
615.657	2826
615.709	2842
615.76	2791
615.812	2850
615.864	2823
615.916	2819
615.968	2842
616.019	2842.44
616.071	2831.15
616.123	2830.7
616.175	2832.91
616.227	2861.91
616.278	2887.26
616.33	2866.02
616.382	2843.23
616.434	2883.66
616.486	2831.11
616.537	2847.63
616.589	2830.64
616.641	2876.1
616.693	2884.21
616.745	2895.39
616.797	2882.29
616.848	2886.22
616.9	2948.22
616.952	2910.07
617.004	2891.28
617.056	2889.82
617.107	2870.87
617.159	2867.44
617.211	2901.32
617.263	2908.91
617.315	2888.8
617.366	2921.68
617.418	2912.03
617.47	2937.93
617.522	2907.25
617.573	2911.18
617.625	2905.3
617.677	2889.29
617.729	2917.87
617.781	2935.66
617.832	2945.95
617.884	2927.5
617.936	2956.75
617.988	2931.37
618.04	2932.69
618.091	2957.3
618.143	2954.51
618.195	2944.69
618.247	2979.76
618.299	2980.25
618.35	2962.96
618.402	2996.77
618.454	2979.47
618.506	2956.28
618.557	2999.62
618.609	3015.21
618.661	3010.89
618.713	2994.27
618.765	2998.37
618.816	2984.03
618.868	2993.3
618.92	3008.4
618.972	2992.95
619.023	3009.82
619.075	2995.36
619.127	3026.45
619.179	3017.79
619.231	3021.74
619.282	3040.88
619.334	3014.59
619.386	3060.86
619.438	3073.57
619.49	3020.18
619.541	3038.96
619.593	3046.35
619.645	3091.16
619.697	3052.81
619.748	3060.65
619.8	3071.14
619.852	3040.11
619.904	3053.74
619.955	3074.68
620.007	3022.73
620.059	3025.26
620.111	3075.63
620.162	3075.04
620.214	3091.12
620.266	3099.85
620.318	3102.79
620.37	3083.69
620.421	3099.28
620.473	3115.1
620.525	3095.23
620.577	3083.19
620.628	3077.08
620.68	3111.67
620.732	3118.92
620.784	3083.06
620.835	3085.66
620.887	3097.75
620.939	3124.55
620.991	3110.44
621.042	3102.85
621.094	3137.09
621.146	3104.26
621.198	3089.06
621.249	3122.89
621.269	3139
621.321	3125
621.373	3133
621.425	3121
621.477	3114
621.529	3127
621.581	3132
621.633	3099
621.685	3147
621.737	3163
621.789	3120
621.841	3138
621.893	3154
621.945	3182
621.997	3133
622.049	3086
622.101	3159
622.153	3148
622.205	3126
622.257	3143
622.309	3176
622.361	3191
622.413	3149
622.465	3123
622.517	3123
622.569	3150
622.621	3174
622.673	3148
622.725	3197
622.776	3153
622.828	3121
622.88	3130
622.932	3169
622.984	3192
623.036	3177
623.088	3166
623.14	3177
623.192	3166
623.244	3217
623.296	3147
623.348	3127
623.4	3157
623.452	3152
623.504	3174
623.556	3185
623.608	3146
623.66	3167
623.712	3143
623.764	3207
623.816	3188
623.868	3215
623.92	3239
623.972	3167
624.024	3192
624.076	3252
624.128	3208
624.18	3159
624.232	3181
624.284	3149
624.336	3261
624.388	3250
624.44	3206
624.492	3236
624.544	3258
624.596	3238
624.648	3225
624.699	3240
624.751	3255
624.803	3221
624.855	3230
624.907	3289
624.959	3189
625.011	3267
625.063	3224
625.115	3231
625.167	3246
625.219	3211
625.271	3219
625.323	3288
625.375	3249
625.427	3325
625.479	3323
625.531	3281
625.583	3251
625.635	3327
625.687	3274
625.739	3292
625.791	3311
625.843	3334
625.895	3310
625.946	3307
625.998	3299
626.05	3308
626.102	3355
626.154	3311
626.206	3369
626.258	3329
626.31	3319
626.362	3313
626.414	3290
626.466	3392
626.518	3325
626.57	3354
626.622	3298
626.674	3355
626.726	3324
626.778	3347
626.83	3324
626.882	3356
626.934	3355
626.985	3402
627.037	3344
627.089	3428
627.141	3372
627.193	3409
627.245	3352
627.297	3361
627.349	3393
627.401	3395
627.453	3437
627.505	3442
627.557	3401
627.609	3457
627.661	3441
627.713	3438
627.765	3402
627.817	3458
627.868	3425
627.92	3440
627.972	3453
628.024	3473
628.076	3410
628.128	3457
628.18	3433
628.232	3466
628.284	3449
628.336	3519
628.388	3434
628.44	3448
628.492	3488
628.544	3480
628.596	3454
628.647	3492
628.699	3535
628.751	3528
628.803	3501
628.855	3449
628.907	3537
628.959	3487
629.011	3553
629.063	3498
629.115	3527
629.167	3496
629.219	3511
629.271	3550
629.322	3571
629.374	3544
629.426	3536
629.478	3470
629.53	3534
629.582	3550
629.634	3589
629.686	3577
629.738	3586
629.79	3622
629.842	3509
629.894	3575
629.945	3558
629.997	3588
630.049	3599
630.101	3571
630.153	3560
630.205	3663
630.257	3595
630.309	3580
630.361	3612
630.413	3642
630.465	3630
630.517	3632
630.568	3629
630.62	3671
630.672	3589
630.724	3689
630.776	3632
630.828	3578
630.88	3667
630.932	3680
630.984	3662
631.036	3658
631.088	3700
631.14	3752
631.191	3659
631.243	3747
631.295	3735
631.347	3721
631.399	3766
631.451	3716
631.503	3725
631.555	3728
631.607	3765
631.659	3723
631.71	3818
631.762	3797
631.814	3724
631.866	3768
631.918	3761
631.97	3827
632.022	3768
632.074	3812
632.126	3793
632.178	3785
632.229	3805
632.281	3806
632.333	3777
632.385	3814
632.437	3816
632.489	3825
632.541	3828
632.593	3832
632.645	3887
632.696	3894
632.748	3866
632.8	3880
632.852	3814
632.904	3873
632.956	3915
633.008	3864
633.06	3861
633.112	3924
633.164	3921
633.215	3968
633.267	3895
633.319	3938
633.371	3979
633.423	3916
633.475	3942
633.527	4032
633.579	3987
633.63	3975
633.682	3938
633.734	3956
633.786	4015
633.838	3991
633.89	3985
633.942	4022
633.994	4037
634.046	4052
634.097	3998
634.149	4036
634.201	4124
634.253	4104
634.305	4079
634.357	4089
634.409	4140
634.461	4099
634.512	4092
634.564	4176
634.616	4144
634.668	4197
634.72	4203
634.772	4129
634.824	4207
634.876	4140
634.927	4134
634.979	4159
635.031	4246
635.083	4227
635.135	4242
635.187	4225
635.239	4249
635.291	4284
635.342	4282
635.394	4325
635.446	4297
635.498	4333
635.55	4265
635.602	4333
635.654	4380
635.705	4360
635.757	4461
635.809	4426
635.861	4432
635.913	4480
635.965	4452
636.017	4523
636.068	4513
636.12	4550
636.172	4574
636.224	4609
636.276	4612
636.328	4635
636.38	4651
636.431	4736
636.483	4694
636.535	4802
636.587	4802
636.639	4866
636.691	4867
636.743	4894
636.794	4979
636.846	4982
636.898	5034
636.95	5096
637.002	5105
637.054	5188
637.106	5275
637.157	5252
637.209	5333
637.261	5389
637.313	5508
637.365	5455
637.417	5566
637.469	5568
637.52	5670
637.572	5804
637.624	5786
637.676	5938
637.728	5913
637.78	6017
637.831	5970
637.883	6075
637.935	6152
637.987	6259
638.039	6166
638.091	6244
638.143	6246
638.194	6283
638.246	6415
638.298	6389
638.35	6308
638.402	6341
638.454	6331
638.505	6371
638.557	6384
638.609	6333
638.661	6275
638.713	6264
638.765	6219
638.816	6142
638.868	6182
638.92	6158
638.972	6122
639.024	6050
639.076	6036
639.127	6073
639.179	5930
639.231	5946
639.283	5807
639.335	5885
639.387	5878
639.438	5798
639.49	5721
639.542	5772
639.594	5704
639.646	5664
639.698	5660
639.749	5622
639.801	5639
639.853	5534
639.905	5530
639.957	5519
640.008	5496
640.06	5518
640.112	5431
640.164	5381
640.216	5443
640.268	5360
640.319	5339
640.371	5355
640.423	5275
640.475	5341
640.527	5288
640.578	5313
640.63	5305
640.682	5227
640.734	5196
640.786	5227
640.838	5234
640.889	5194
640.941	5151
640.993	5164
641.045	5136
641.097	5140
641.148	5108
641.2	5176
641.252	5164
641.304	5149
641.356	5072
641.408	5140
641.459	5076
641.511	5070
641.563	5105
641.615	5139
641.667	5167
641.718	5188
641.77	5072
641.822	5088
641.874	5082
641.926	5065
641.977	5079
642.029	5128
642.081	5152
642.133	5165
642.185	5102
642.236	5064
642.288	5115
642.34	5167
642.392	5090
642.444	5103
642.495	5091
642.547	5126
642.599	5124
642.651	5112
642.703	5104
642.754	5083
642.806	5059
642.858	5057
642.91	5083
642.962	5107
643.013	5130
643.065	5133
643.117	5043
643.169	5129
643.221	5096
643.272	5115
643.324	5116
643.376	5132
643.428	5066
643.479	5089
643.531	5183
643.583	5185
643.635	5168
643.687	5092
643.738	5159
643.79	5177
643.842	5134
643.894	5104
643.946	5097
643.997	5164
644.049	5129
644.101	5139
644.153	5154
644.205	5131
644.256	5195
644.308	5161
644.36	5148
644.412	5183
644.463	5196
644.515	5173
644.567	5227
644.619	5157
644.671	5182
644.722	5224
644.774	5243
644.826	5308
644.878	5237
644.929	5253
644.981	5248
645.033	5219
645.085	5235
645.136	5283
645.188	5202
645.24	5193
645.292	5258
645.344	5269
645.395	5228
645.447	5295
645.499	5260
645.551	5303
645.602	5350
645.654	5260
645.706	5279
645.758	5272
645.81	5287
645.861	5312
645.913	5326
645.965	5271
646.017	5291
646.068	5325
646.12	5244
646.172	5320
646.224	5365
646.275	5318
646.327	5289
646.379	5334
646.431	5299
646.482	5300
646.534	5366
646.586	5363
646.638	5347
646.689	5399
646.741	5340
646.793	5394
646.845	5380
646.896	5367
646.948	5343
647	5399
647.052	5420
647.104	5361
647.155	5427
647.207	5429
647.259	5417
647.31	5467
647.362	5443
647.414	5393
647.466	5482
647.518	5413
647.569	5420
647.621	5426
647.673	5418
647.724	5400
647.776	5410
647.828	5491
647.88	5446
647.931	5517
647.983	5471
648.035	5559
648.087	5507
648.138	5461
648.19	5514
648.242	5463
648.294	5490
648.345	5556
648.397	5426
648.449	5531
648.501	5469
648.552	5509
648.604	5522
648.656	5554
648.708	5550
648.759	5476
648.811	5576
648.863	5618
648.915	5558
648.966	5599
649.018	5600
649.07	5573
649.121	5640
649.173	5658
649.225	5590
649.277	5634
649.328	5609
649.38	5680
649.432	5682
649.484	5692
649.535	5651
649.587	5703
649.639	5711
649.69	5681
649.742	5702
649.794	5706
649.846	5775
649.897	5712
649.949	5666
650.001	5781
650.053	5797
650.104	5669
650.156	5811
650.208	5756
650.259	5796
650.311	5726
650.363	5749
650.415	5798
650.466	5739
650.518	5770
650.57	5783
650.621	5852
650.673	5789
650.725	5818
650.777	5869
650.828	5791
650.88	5806
650.932	5813
650.984	5930
651.035	5808
651.087	5871
651.139	5909
651.19	5915
651.242	5954
651.294	5971
651.345	5900
651.397	5962
651.449	5908
651.501	5964
651.552	5940
651.604	5898
651.656	6001
651.707	5929
651.759	5938
651.811	6041
651.863	6038
651.914	6006
651.966	6004
652.018	6000
652.069	6032
652.121	6025
652.173	6011
652.224	6123
652.276	6092
652.328	6047
652.38	6125
652.431	6092
652.483	6091
652.535	6160
652.586	6065
652.638	6089
652.69	6230
652.741	6136
652.793	6100
652.845	6163
652.897	6182
652.948	6164
653	6189
653.052	6188
653.103	6171
653.155	6251
653.207	6199
653.258	6181
653.31	6222
653.362	6237
653.413	6255
653.465	6261
653.517	6232
653.568	6288
653.62	6341
653.672	6344
653.724	6265
653.775	6287
653.827	6365
653.879	6357
653.93	6354
653.982	6356
654.034	6368
654.085	6371
654.137	6315
654.189	6359
654.24	6422
654.292	6481
654.344	6429
654.395	6366
654.447	6505
654.499	6543
654.55	6487
654.602	6535
654.654	6520
654.705	6592
654.757	6563
654.809	6558
654.86	6548
654.912	6554
654.964	6552
655.016	6669
655.067	6594
655.119	6677
655.17	6637
655.222	6681
655.274	6676
655.326	6625
655.377	6674
655.429	6707
655.481	6680
655.532	6692
655.584	6749
655.635	6821
655.687	6782
655.739	6825
655.79	6762
655.842	6764
655.894	6834
655.945	6892
655.997	6865
656.049	6859
656.1	6898
656.152	6860
656.204	6893
656.255	6904
656.307	6962
656.359	6964
656.41	6934
656.462	6974
656.514	7010
656.565	7106
656.617	7067
656.669	7023
656.72	7051
656.772	7108
656.824	7067
656.875	7128
656.927	7159
656.979	7139
657.03	7096
657.082	7153
657.134	7187
657.185	7168
657.237	7176
657.288	7270
657.34	7273
657.392	7207
657.443	7277
657.495	7336
657.547	7304
657.598	7224
657.65	7284
657.702	7310
657.753	7336
657.805	7369
657.857	7326
657.908	7389
657.96	7357
658.011	7361
658.063	7371
658.115	7387
658.166	7406
658.218	7402
658.27	7412
658.321	7432
658.373	7431
658.425	7456
658.476	7485
658.528	7482
658.579	7460
658.631	7485
658.683	7441
658.734	7440
658.786	7482
658.838	7554
658.889	7526
658.941	7554
658.992	7511
659.044	7506
659.096	7561
659.147	7588
659.199	7546
659.251	7515
659.302	7521
659.354	7607
659.406	7589
659.457	7558
659.509	7602
659.56	7536
659.612	7595
659.664	7658
659.715	7638
659.767	7599
659.818	7617
659.87	7587
659.922	7624
659.973	7651
660.025	7675
660.077	7602
660.128	7659
660.18	7594
660.231	7655
660.283	7661
660.335	7670
660.386	7668
660.438	7647
660.49	7692
660.541	7664
660.593	7617
660.644	7621
660.696	7658
660.748	7715
660.799	7749
660.851	7688
660.902	7627
660.954	7629
661.006	7631
661.057	7627
661.109	7630
661.16	7635
661.212	7551
661.264	7649
661.315	7686
661.367	7667
661.418	7598
661.47	7601
661.522	7622
661.573	7591
661.625	7614
661.676	7599
661.728	7597
661.78	7560
661.831	7639
661.883	7576
661.934	7662
661.986	7629
662.038	7630
662.089	7604
662.141	7712
662.192	7657
662.244	7643
662.296	7629
662.347	7590
662.399	7673
662.45	7621
662.502	7602
662.554	7650
662.605	7635
662.657	7652
662.708	7636
662.76	7568
662.811	7601
662.863	7686
662.915	7708
662.966	7683
663.018	7629
663.069	7643
663.121	7615
663.173	7629
663.224	7696
663.276	7730
663.327	7717
663.379	7610
663.43	7700
663.482	7679
663.534	7634
663.585	7604
663.637	7622
663.688	7655
663.74	7681.76
663.792	7604.71
663.843	7633.93
663.895	7748.77
663.946	7584.46
663.998	7641.09
664.049	7700.21
664.101	7688.94
664.153	7689.7
664.204	7720.19
664.256	7679.73
664.307	7652.22
664.359	7674.82
664.41	7691.3
664.462	7696.96
664.513	7672.87
664.565	7646.68
664.617	7713.27
664.668	7626.93
664.72	7687.29
664.771	7704.95
664.823	7704.75
664.874	7674.14
664.926	7648.33
664.978	7671.12
665.029	7638.07
665.081	7684.16
665.132	7687.75
665.184	7664.55
665.235	7686.7
665.287	7690.3
665.339	7698.14
665.39	7636.93
665.442	7702.72
665.493	7636.91
665.545	7631.99
665.596	7691.97
665.648	7687.98
665.699	7707.51
665.751	7686.67
665.802	7673.77
665.854	7661.01
665.906	7675.25
665.957	7682.82
666.009	7661.44
666.06	7671.66
666.112	7633.77
666.163	7660.45
666.215	7706.4
666.266	7694.21
666.318	7689.42
666.37	7607.54
666.421	7648.77
666.473	7677.31
666.524	7658.43
666.576	7690.87
666.627	7688.4
666.679	7646.42
666.73	7619.48
666.782	7630.31
666.833	7599.49
666.885	7637.78
666.937	7671.22
666.988	7661.77
667.04	7624.8
667.091	7681.86
667.143	7633.73
667.194	7686.3
667.246	7644.38
667.297	7673.95
667.349	7640.56
667.4	7615.91
667.452	7575.39
667.503	7626.05
667.555	7611.26
667.607	7632.12
667.658	7595.42
667.71	7609.14
667.761	7639.53
667.813	7642.53
667.864	7634.21
667.916	7677.95
667.967	7671.42
668.019	7673.71
668.07	7685.76
668.122	7638.57
668.173	7649.02
668.225	7689.64
668.276	7643.81
668.328	7668.13
668.379	7666.08
668.431	7666.12
668.482	7705.31
668.534	7668.61
668.586	7626.28
668.637	7674.36
668.689	7623.16
668.74	7621.09
668.792	7657.86
668.843	7661.63
668.895	7657.09
668.935	7661
668.987	7633
669.038	7671
669.09	7703
669.142	7616
669.194	7704
669.245	7567
669.297	7689
669.349	7639
669.401	7658
669.453	7640
669.504	7633
669.556	7658
669.608	7635
669.66	7620
669.711	7653
669.763	7657
669.815	7646
669.867	7670
669.918	7653
669.97	7765
670.022	7659
670.074	7627
670.125	7644
670.177	7683
670.229	7598
670.281	7694
670.332	7704
670.384	7628
670.436	7665
670.488	7634
670.539	7645
670.591	7578
670.643	7633
670.695	7631
670.747	7564
670.798	7721
670.85	7723
670.902	7703
670.953	7719
671.005	7632
671.057	7694
671.109	7642
671.161	7576
671.212	7720
671.264	7549
671.316	7667
671.367	7662
671.419	7631
671.471	7662
671.523	7645
671.575	7665
671.626	7597
671.678	7721
671.73	7654
671.781	7627
671.833	7707
671.885	7595
671.937	7682
671.988	7711
672.04	7724
672.092	7717
672.144	7669
672.195	7778
672.247	7694
672.299	7750
672.351	7676
672.402	7684
672.454	7703
672.506	7698
672.558	7660
672.609	7697
672.661	7765
672.713	7711
672.765	7761
672.816	7703
672.868	7740
672.92	7772
672.971	7748
673.023	7683
673.075	7765
673.127	7799
673.178	7818
673.23	7756
673.282	7774
673.334	7818
673.385	7901
673.437	7803
673.489	7830
673.54	7820
673.592	7825
673.644	7832
673.696	7809
673.747	7800
673.799	7869
673.851	7824
673.903	7906
673.954	7906
674.006	7890
674.058	7855
674.109	7907
674.161	7956
674.213	7978
674.265	7944
674.316	7957
674.368	7893
674.42	8020
674.471	8071
674.523	7983
674.575	7965
674.627	8078
674.678	7913
674.73	7945
674.782	8071
674.833	7964
674.885	8051
674.937	8054
674.989	8023
675.04	8049
675.092	8087
675.144	7943
675.195	8047
675.247	8108
675.299	8073
675.351	8134
675.402	8156
675.454	8033
675.506	8081
675.557	8112
675.609	8105
675.661	8153
675.713	8111
675.764	8171
675.816	8062
675.868	8159
675.919	8210
675.971	8152
676.023	8069
676.074	8124
676.126	8131
676.178	8124
676.23	8210
676.281	8165
676.333	8159
676.385	8138
676.436	8146
676.488	8217
676.54	8086
676.591	8063
676.643	8151
676.695	8206
676.747	8216
676.798	8125
676.85	8115
676.902	8259
676.953	8143
677.005	8242
677.057	8220
677.108	8212
677.16	8252
677.212	8142
677.263	8153
677.315	8156
677.367	8235
677.419	8284
677.47	8168
677.522	8182
677.574	8244
677.625	8197
677.677	8176
677.729	8210
677.78	8168
677.832	8161
677.884	8246
677.935	8219
677.987	8258
678.039	8196
678.091	8189
678.142	8268
678.194	8159
678.246	8109
678.297	8169
678.349	8237
678.401	8180
678.452	8233
678.504	8174
678.556	8155
678.607	8143
678.659	8241
678.711	8241
678.762	8132
678.814	8150
678.866	8175
678.917	8233
678.969	8131
679.021	8275
679.072	8216
679.124	8237
679.176	8272
679.227	8146
679.279	8193
679.331	8257
679.382	8226
679.434	8181
679.486	8214
679.537	8211
679.589	8275
679.641	8242
679.692	8253
679.744	8372
679.796	8173
679.847	8208
679.899	8266
679.951	8289
680.003	8254
680.054	8226
680.106	8237
680.157	8248
680.209	8242
680.261	8217
680.312	8299
680.364	8307
680.416	8237
680.467	8293
680.519	8287
680.571	8342
680.622	8310
680.674	8345
680.726	8330
680.777	8323
680.829	8357
680.881	8296
680.932	8329
680.984	8344
681.036	8388
681.087	8345
681.139	8384
681.191	8356
681.242	8383
681.294	8331
681.346	8453
681.397	8370
681.449	8411
681.501	8408
681.552	8366
681.604	8304
681.656	8461
681.707	8399
681.759	8298
681.81	8504
681.862	8425
681.914	8408
681.965	8475
682.017	8428
682.069	8488
682.12	8415
682.172	8464
682.224	8494
682.275	8496
682.327	8588
682.379	8508
682.43	8493
682.482	8510
682.533	8404
682.585	8549
682.637	8432
682.688	8521
682.74	8450
682.792	8495
682.843	8486
682.895	8479
682.947	8432
682.998	8486
683.05	8429
683.102	8488
683.153	8515
683.205	8494
683.256	8465
683.308	8587
683.36	8518
683.411	8520
683.463	8537
683.515	8484
683.566	8453
683.618	8563
683.669	8580
683.721	8586
683.773	8494
683.824	8470
683.876	8525
683.928	8512
683.979	8477
684.031	8419
684.082	8494
684.134	8455
684.186	8554
684.237	8473
684.289	8443
684.341	8504
684.392	8499
684.444	8490
684.495	8463
684.547	8426
684.599	8465
684.65	8400
684.702	8462
684.754	8454
684.805	8441
684.857	8385
684.908	8441
684.96	8446
685.012	8413
685.063	8409
685.115	8408
685.166	8412
685.218	8286
685.27	8364
685.321	8440
685.373	8372
685.424	8482
685.476	8315
685.528	8450
685.579	8405
685.631	8402
685.683	8373
685.734	8405
685.786	8332
685.837	8420
685.889	8398
685.941	8331
685.992	8385
686.044	8331
686.095	8346
686.147	8328
686.199	8282
686.25	8307
686.302	8415
686.353	8338
686.405	8409
686.457	8374
686.508	8408
686.56	8369
686.611	8243
686.663	8331
686.715	8379
686.766	8332
686.818	8265
686.869	8343
686.921	8263
686.973	8314
687.024	8255
687.076	8357
687.127	8220
687.179	8255
687.231	8296
687.282	8297
687.334	8327
687.385	8377
687.437	8350
687.489	8354
687.54	8251
687.592	8318
687.643	8331
687.695	8377
687.747	8214
687.798	8288
687.85	8212
687.901	8248
687.953	8244
688.004	8342
688.056	8291
688.108	8319
688.159	8203
688.211	8276
688.262	8234
688.314	8213
688.366	8352
688.417	8307
688.469	8220
688.52	8262
688.572	8261
688.623	8242
688.675	8289
688.727	8247
688.778	8291
688.83	8276
688.881	8250
688.933	8214
688.984	8174
689.036	8253
689.088	8229
689.139	8229
689.191	8160
689.242	8285
689.294	8290
689.346	8170
689.397	8203
689.449	8173
689.5	8275
689.552	8220
689.603	8191
689.655	8208
689.706	8180
689.758	8136
689.81	8237
689.861	8231
689.913	8240
689.964	8174
690.016	8216
690.067	8161
690.119	8165
690.171	8145
690.222	8250
690.274	8142
690.325	8197
690.377	8199
690.428	8190
690.48	8120
690.531	8086
690.583	8176
690.635	8120
690.686	8216
690.738	8161
690.789	8135
690.841	8073
690.892	8102
690.944	8121
690.996	8086
691.047	8115
691.099	8138
691.15	8125
691.202	8243
691.253	8116
691.305	8059
691.356	8124
691.408	8094
691.459	8057
691.511	8045
691.563	8030
691.614	8076
691.666	8078
691.717	8021
691.769	8093
691.82	8090
691.872	8035
691.923	8019
691.975	8052
692.026	8023
692.078	8084
692.13	8055
692.181	8049
692.233	7985
692.284	8019
692.336	8022
692.387	7968
692.439	8020
692.49	7920
692.542	7974
692.593	8028
692.645	7950
692.697	7970
692.748	7962
692.8	7983
692.851	7927
692.903	7994
692.954	7915
693.006	7987
693.057	7987
693.109	7974
693.16	7893
693.212	7925
693.263	7880
693.315	7890
693.366	7930
693.418	7860
693.47	7849
693.521	7933
693.573	7905
693.624	7930
693.676	7942
693.727	7899
693.779	7898
693.83	7877
693.882	7877
693.933	7875
693.985	7905
694.036	7902
694.088	7865
694.139	7886
694.191	7877
694.242	7879
694.294	7884
694.345	7811
694.397	7850
694.448	7880
694.5	7859
694.552	7821
694.603	7870
694.655	7849
694.706	7785
694.758	7774
694.809	7822
694.861	7909
694.912	7790
694.964	7893
695.015	7822
695.067	7862
695.118	7816
695.17	7775
695.221	7836
695.273	7740
695.324	7888
695.376	7711
695.427	7849
695.479	7789
695.53	7803
695.582	7919
695.633	7831
695.685	7804
695.736	7729
695.788	7746
695.839	7773
695.891	7783
695.942	7789
695.994	7779
696.045	7746
696.097	7844
696.148	7761
696.2	7730
696.251	7727
696.303	7709
696.354	7732
696.406	7727
696.457	7710
696.509	7760
696.56	7797
696.612	7668
696.663	7686
696.715	7715
696.766	7665
696.818	7691
696.869	7641
696.921	7676
696.972	7722
697.024	7668
697.075	7664
697.127	7658
697.178	7600
697.23	7645
697.281	7675
697.333	7702
697.384	7694
697.436	7618
697.487	7586
697.539	7580
697.59	7553
697.642	7598
697.693	7563
697.745	7605
697.796	7620
697.847	7512
697.899	7548
697.95	7597
698.002	7574
698.053	7503
698.105	7492
698.156	7531
698.208	7625
698.259	7520
698.311	7474
698.362	7485
698.414	7560
698.465	7503
698.517	7518
698.568	7518
698.62	7501
698.671	7524
698.723	7502
698.774	7429
698.826	7502
698.877	7437
698.928	7427
698.98	7520
699.031	7449
699.083	7443
699.134	7377
699.186	7401
699.237	7396
699.289	7477
699.34	7414
699.392	7390
699.443	7483
699.495	7463
699.546	7281
699.598	7353
699.649	7418
699.7	7320
699.752	7350
699.803	7359
699.855	7256
699.906	7356
699.958	7294
700.009	7366
700.061	7429
700.112	7372
700.164	7421
700.215	7386
700.266	7390
700.318	7283
700.369	7325
700.421	7340
700.472	7329
700.524	7350
700.575	7302
700.627	7325
700.678	7335
700.73	7302
700.781	7372
700.832	7296
700.884	7434
700.935	7272
700.987	7435
701.038	7313
701.09	7276
701.141	7275
701.193	7330
701.244	7287
701.295	7380
701.347	7295
701.398	7372
701.45	7360
701.501	7341
701.553	7296
701.604	7353
701.656	7337
701.707	7352
701.758	7310
701.81	7357
701.861	7402
701.913	7394
701.964	7326
702.016	7279
702.067	7252
702.119	7312
702.17	7280
702.221	7361
702.273	7272
702.324	7217
702.376	7359
702.427	7365
702.479	7388
702.53	7399
702.581	7356
702.633	7386
702.684	7330
702.736	7357
702.787	7295
702.839	7396
702.89	7366
702.941	7340
702.993	7357
703.044	7330
703.096	7322
703.147	7272
703.199	7313
703.25	7343
703.301	7318
703.353	7358
703.404	7251
703.456	7278
703.507	7370
703.558	7304
703.61	7300
703.661	7289
703.713	7308
703.764	7252
703.816	7282
703.867	7373
703.918	7418
703.97	7314
704.021	7385
704.073	7343
704.124	7264
704.175	7282
704.227	7281
704.278	7186
704.33	7255
704.381	7266
704.432	7253
704.484	7288
704.535	7325
704.587	7235
704.638	7283
704.69	7167
704.741	7305
704.792	7207
704.844	7221
704.895	7207
704.947	7206
704.998	7209
705.049	7235
705.101	7257
705.152	7267
705.204	7202
705.255	7221
705.306	7172
705.358	7175
705.409	7118
705.461	7169
705.512	7182
705.563	7179
705.615	7094
705.666	7113
705.718	7134
705.769	7104
705.82	7088
705.872	7025
705.923	7103
705.974	7113
706.026	6994
706.077	7035
706.129	7062
706.18	7043
706.231	7101
706.283	7059
706.334	7029
706.386	7047
706.437	7019
706.488	7041
706.54	6924
706.591	6975
706.643	7037
706.694	6954
706.745	7044
706.797	7051
706.848	6904
706.899	6984
706.951	6865
707.002	6974
707.054	7004
707.105	6911
707.156	6913
707.208	6945
707.259	6907
707.31	6979
707.362	6913
707.413	6896
707.465	6913
707.516	6923
707.567	6851
707.619	6890
707.67	6871
707.721	6858
707.773	6842
707.824	6865
707.876	6841
707.927	6856
707.978	6883
708.03	6783
708.081	6863
708.132	6824
708.184	6870
708.235	6891
708.287	6753
708.338	6760
708.389	6803
708.441	6830
708.492	6821
708.543	6825
708.595	6865
708.646	6860
708.697	6728
708.749	6812
708.8	6803
708.852	6857
708.903	6820
708.954	6831
709.006	6786
709.057	6849
709.108	6783
709.16	6811
709.211	6791
709.262	6759
709.314	6737
709.365	6748
709.416	6783
709.468	6739
709.519	6837
709.57	6756
709.622	6710
709.673	6871
709.725	6745
709.776	6715
709.827	6716
709.879	6652
709.93	6673
709.981	6670
710.033	6684
710.084	6778
710.135	6733
710.187	6744
710.238	6739
710.289	6637
710.341	6671
710.392	6779
710.443	6639
710.495	6773
710.546	6700
710.597	6659
710.649	6705
710.7	6672
710.751	6657
710.803	6690
710.854	6691
710.905	6624
710.957	6692
711.008	6720
711.059	6687
711.111	6665
711.162	6719
711.213	6680
711.265	6683.46
711.316	6679.14
711.367	6655.92
711.419	6631.77
711.47	6624.34
711.521	6611.06
711.573	6597.32
711.624	6626.37
711.675	6651.55
711.727	6562.66
711.778	6682.31
711.829	6588.92
711.881	6568.47
711.932	6566.3
711.983	6570.32
712.035	6578.26
712.086	6549.41
712.137	6614.9
712.189	6577.19
712.24	6542.55
712.291	6546.23
712.343	6556.72
712.394	6497.07
712.445	6549.93
712.496	6534.76
712.548	6520.45
712.599	6540.78
712.65	6521.75
712.702	6531.73
712.753	6480.11
712.804	6482.25
712.856	6563.07
712.907	6476.04
712.958	6511.72
713.01	6522.1
713.061	6456.44
713.112	6429.03
713.164	6450.13
713.215	6442.68
713.266	6411.85
713.317	6430.98
713.369	6455.61
713.42	6434.81
713.471	6440.56
713.523	6419.44
713.574	6384.35
713.625	6332.33
713.677	6419.76
713.728	6364.57
713.779	6382.9
713.831	6337.2
713.882	6300.85
713.933	6340.02
713.984	6360.94
714.036	6349.94
714.087	6351.88
714.138	6316.83
714.19	6315.21
714.241	6336.17
714.292	6298.97
714.343	6313.78
714.395	6281.44
714.446	6308.87
714.497	6336.02
714.549	6272.19
714.6	6308.32
714.651	6258.29
714.703	6253.48
714.754	6225.37
714.805	6251
714.856	6259.8
714.908	6247.52
714.959	6260.22
715.01	6228.31
715.062	6200.06
715.113	6214.28
715.164	6229.7
715.215	6225.04
715.267	6186.67
715.318	6210.55
715.369	6184.11
715.421	6168.97
715.472	6171.64
715.523	6139.15
715.574	6175.42
715.626	6186.08
715.677	6146.26
715.728	6184.13
715.779	6184.35
715.831	6140.13
715.882	6144.3
715.933	6182.54
715.985	6184.5
716.036	6105.54
716.087	6093.68
716.138	6084.58
716.19	6127.05
716.241	6101.15
716.292	6110.18
716.343	6075.21
716.395	6075.77
716.433	6073
716.485	6159
716.536	6145
716.588	6091
716.639	6108
716.691	6064
716.742	6041
716.794	6049
716.845	6050
716.897	6021
716.948	6016
717	6070
717.052	6048
717.103	6021
717.155	6027
717.206	6000
717.258	6093
717.309	6048
717.361	6008
717.412	5984
717.464	5956
717.515	5994
717.567	6018
717.618	5935
717.67	5930
717.721	5967
717.773	5946
717.824	5956
717.876	5997
717.927	5976
717.979	5901
718.03	5932
718.082	5912
718.133	5855
718.185	5869
718.237	5885
718.288	5891
718.34	5972
718.391	5891
718.443	5909
718.494	5919
718.546	5906
718.597	5950
718.649	5871
718.7	5876
718.752	5921
718.803	5937
718.855	5901
718.906	5849
718.958	5861
719.009	5909
719.061	5793
719.112	5832
719.164	5804
719.215	5788
719.267	5875
719.318	5819
719.37	5772
719.421	5786
719.473	5801
719.524	5758
719.576	5755
719.627	5750
719.679	5797
719.73	5739
719.782	5788
719.833	5810
719.885	5712
719.936	5744
719.988	5712
720.039	5819
720.091	5794
720.142	5784
720.194	5790
720.245	5720
720.297	5729
720.348	5696
720.4	5670
720.451	5718
720.503	5648
720.554	5659
720.606	5648
720.657	5688
720.709	5616
720.76	5631
720.812	5695
720.863	5619
720.915	5656
720.966	5627
721.018	5615
721.069	5587
721.121	5637
721.172	5614
721.224	5589
721.275	5567
721.327	5550
721.378	5542
721.43	5492
721.481	5618
721.532	5580
721.584	5563
721.635	5622
721.687	5570
721.738	5499
721.79	5520
721.841	5484
721.893	5525
721.944	5488
721.996	5469
722.047	5469
722.099	5446
722.15	5474
722.202	5507
722.253	5504
722.305	5476
722.356	5474
722.408	5481
722.459	5450
722.511	5478
722.562	5337
722.614	5416
722.665	5383
722.716	5332
722.768	5425
722.819	5429
722.871	5391
722.922	5384
722.974	5422
723.025	5389
723.077	5310
723.128	5385
723.18	5343
723.231	5359
723.283	5360
723.334	5320
723.386	5278
723.437	5361
723.488	5324
723.54	5353
723.591	5275
723.643	5349
723.694	5242
723.746	5362
723.797	5309
723.849	5288
723.9	5292
723.952	5271
724.003	5327
724.055	5291
724.106	5264
724.157	5270
724.209	5299
724.26	5255
724.312	5224
724.363	5236
724.415	5301
724.466	5276
724.518	5203
724.569	5227
724.621	5208
724.672	5194
724.723	5220
724.775	5190
724.826	5335
724.878	5178
724.929	5246
724.981	5227
725.032	5200
725.084	5196
725.135	5153
725.187	5191
725.238	5214
725.289	5159
725.341	5181
725.392	5149
725.444	5114
725.495	5130
725.547	5135
725.598	5220
725.65	5139
725.701	5090
725.752	5117
725.804	5174
725.855	5119
725.907	5114
725.958	5164
726.01	5056
726.061	5104
726.112	5092
726.164	5050
726.215	5063
726.267	5142
726.318	5067
726.37	5023
726.421	5140
726.473	4994
726.524	5024
726.575	5056
726.627	5006
726.678	5031
726.73	5023
726.781	5071
726.833	5081
726.884	5094
726.935	4956
726.987	4992
727.038	4951
727.09	5014
727.141	5028
727.193	4931
727.244	4939
727.295	4974
727.347	4984
727.398	4897
727.45	4891
727.501	4941
727.552	4954
727.604	4930
727.655	4866
727.707	4874
727.758	4892
727.81	4904
727.861	4949
727.912	4866
727.964	4962
728.015	4874
728.067	4879
728.118	4888
728.17	4882
728.221	4868
728.272	4865
728.324	4842
728.375	4812
728.427	4816
728.478	4808
728.529	4841
728.581	4842
728.632	4744
728.684	4828
728.735	4753
728.786	4762
728.838	4770
728.889	4737
728.941	4888
728.992	4742
729.044	4783
729.095	4717
729.146	4744
729.198	4747
729.249	4711
729.301	4691
729.352	4698
729.403	4688
729.455	4630
729.506	4656
729.558	4640
729.609	4628
729.66	4644
729.712	4685
729.763	4696
729.815	4654
729.866	4633
729.917	4616
729.969	4597
730.02	4612
730.072	4622
730.123	4610
730.174	4566
730.226	4537
730.277	4577
730.329	4583
730.38	4579
730.431	4576
730.483	4625
730.534	4541
730.586	4567
730.637	4575
730.688	4539
730.74	4555
730.791	4517
730.842	4470
730.894	4548
730.945	4575
730.997	4569
731.048	4509
731.099	4518
731.151	4465
731.202	4434
731.254	4495
731.305	4443
731.356	4405
731.408	4453
731.459	4468
731.51	4478
731.562	4500
731.613	4478
731.665	4485
731.716	4489
731.767	4485
731.819	4496
731.87	4461
731.922	4418
731.973	4453
732.024	4463
732.076	4426
732.127	4457
732.178	4358
732.23	4454
732.281	4424
732.333	4433
732.384	4426
732.435	4431
732.487	4431
732.538	4386
732.589	4428
732.641	4388
732.692	4362
732.744	4387
732.795	4386
732.846	4377
732.898	4408
732.949	4377
733	4347
733.052	4343
733.103	4372
733.154	4332
733.206	4345
733.257	4317
733.309	4345
733.36	4310
733.411	4358
733.463	4349
733.514	4352
733.565	4349
733.617	4334
733.668	4341
733.719	4337
733.771	4333
733.822	4336
733.873	4320
733.925	4353
733.976	4322
734.028	4276
734.079	4352
734.13	4363
734.182	4302
734.233	4253
734.284	4314
734.336	4272
734.387	4287
734.438	4308
734.49	4291
734.541	4308
734.592	4291
734.644	4293
734.695	4316
734.747	4263
734.798	4271
734.849	4285
734.901	4284
734.952	4295
735.003	4272
735.055	4294
735.106	4302
735.157	4269
735.209	4236
735.26	4273
735.311	4252
735.363	4251
735.414	4234
735.465	4240
735.517	4236
735.568	4198
735.619	4235
735.671	4271
735.722	4238
735.773	4232
735.825	4196
735.876	4215
735.927	4199
735.979	4278
736.03	4260
736.081	4199
736.133	4186
736.184	4184
736.235	4158
736.287	4275
736.338	4172
736.389	4182
736.441	4177
736.492	4220
736.543	4237
736.595	4252
736.646	4221
736.697	4166
736.749	4247
736.8	4240
736.851	4182
736.903	4168
736.954	4191
737.005	4197
737.057	4166
737.108	4202
737.159	4252
737.211	4207
737.262	4209
737.313	4217
737.365	4176
737.416	4181
737.467	4178
737.518	4187
737.57	4223
737.621	4215
737.672	4235
737.724	4203
737.775	4181
737.826	4200
737.878	4216
737.929	4203
737.98	4252
738.032	4188
738.083	4140
738.134	4217
738.186	4205
738.237	4176
738.288	4177
738.339	4188
738.391	4106
738.442	4155
738.493	4195
738.545	4175
738.596	4158
738.647	4144
738.699	4158
738.75	4176
738.801	4114
738.853	4111
738.904	4119
738.955	4169
739.006	4118
739.058	4123
739.109	4098
739.16	4099
739.212	4153
739.263	4094
739.314	4081
739.366	4098
739.417	4068
739.468	4077
739.519	4111
739.571	4095
739.622	4072
739.673	4028
739.725	4098
739.776	4077
739.827	4084
739.878	4064
739.93	4051
739.981	4037
740.032	4032
740.084	4070
740.135	4078
740.186	4001
740.237	4024
740.289	4055
740.34	4084
740.391	3990
740.443	3976
740.494	4003
740.545	4000
740.596	4045
740.648	4003
740.699	3966
740.75	3999
740.802	3985
740.853	3982
740.904	3999
740.956	3968
741.007	3928
741.058	3971
741.109	3980
741.161	3944
741.212	3952
741.263	3903
741.314	3960
741.366	3975
741.417	3900
741.468	3933
741.52	3914
741.571	3953
741.622	3901
741.673	3928
741.725	3910
741.776	3909
741.827	3908
741.878	3926
741.93	3903
741.981	4002
742.032	3908
742.083	3858
742.135	3942
742.186	3875
742.237	3883
742.289	3893
742.34	3867
742.391	3830
742.442	3782
742.494	3817
742.545	3862
742.596	3873
742.647	3824
742.699	3856
742.75	3872
742.801	3804
742.852	3794
742.904	3855
742.955	3821
743.006	3822
743.057	3848
743.109	3805
743.16	3795
743.211	3795
743.263	3786
743.314	3715
743.365	3787
743.416	3761
743.468	3765
743.519	3765
743.57	3834
743.621	3749
743.672	3776
743.724	3790
743.775	3777
743.826	3725
743.878	3741
743.929	3681
743.98	3718
744.031	3753
744.083	3746
744.134	3761
744.185	3693
744.236	3647
744.287	3752
744.339	3684
744.39	3694
744.441	3661
744.492	3742
744.544	3717
744.595	3693
744.646	3724
744.697	3674
744.749	3714
744.8	3675
744.851	3740
744.902	3651
744.954	3707
745.005	3651
745.056	3716
745.107	3700
745.159	3662
745.21	3671
745.261	3635
745.312	3608
745.363	3617
745.415	3690
745.466	3655
745.517	3655
745.568	3641
745.62	3632
745.671	3595
745.722	3633
745.773	3606
745.824	3653
745.876	3615
745.927	3607
745.978	3622
746.029	3613
746.081	3610
746.132	3541
746.183	3585
746.234	3569
746.285	3588
746.337	3589
746.388	3597
746.439	3579
746.49	3587
746.542	3542
746.593	3588
746.644	3599
746.695	3559
746.746	3590
746.798	3516
746.849	3565
746.9	3522
746.951	3659
747.003	3581
747.054	3566
747.105	3566
747.156	3560
747.207	3530
747.259	3540
747.31	3514
747.361	3544
747.412	3490
747.463	3511
747.515	3535
747.566	3519
747.617	3480
747.668	3571
747.719	3497
747.771	3554
747.822	3480
747.873	3485
747.924	3499
747.975	3515
748.027	3472
748.078	3492
748.129	3525
748.18	3463
748.231	3479
748.283	3430
748.334	3473
748.385	3434
748.436	3473
748.487	3494
748.539	3474
748.59	3469
748.641	3485
748.692	3493
748.743	3487
748.795	3471
748.846	3502
748.897	3471
748.948	3468
748.999	3387
749.05	3492
749.102	3404
749.153	3442
749.204	3421
749.255	3460
749.306	3430
749.358	3385
749.409	3428
749.46	3447
749.511	3382
749.562	3422
749.614	3444
749.665	3387
749.716	3382
749.767	3376
749.818	3371
749.869	3415
749.921	3408
749.972	3386
750.023	3352
750.074	3356
750.125	3359
750.177	3380
750.228	3367
750.279	3335
750.33	3342
750.381	3425
750.432	3389
750.484	3386
750.535	3337
750.586	3331
750.637	3314
750.688	3316
750.739	3360
750.791	3317
750.842	3339
750.893	3322
750.944	3336
750.995	3258
751.046	3288
751.098	3266
751.149	3283
751.2	3294
751.251	3301
751.302	3286
751.353	3286
751.404	3286
751.456	3263
751.507	3269
751.558	3268
751.609	3237
751.66	3282
751.711	3228
751.763	3265
751.814	3302
751.865	3295
751.916	3275
751.967	3232
752.018	3274
752.07	3248
752.121	3286
752.172	3211
752.223	3239
752.274	3230
752.325	3220
752.376	3274
752.428	3236
752.479	3246
752.53	3216
752.581	3192
752.632	3194
752.683	3175
752.734	3168
752.786	3236
752.837	3180
752.888	3179
752.939	3196
752.99	3202
753.041	3243
753.092	3199
753.144	3146
753.195	3183
753.246	3170
753.297	3186
753.348	3171
753.399	3158
753.45	3189
753.502	3160
753.553	3152
753.604	3138
753.655	3127
753.706	3131
753.757	3122
753.808	3178
753.859	3114
753.911	3139
753.962	3092
754.013	3138
754.064	3082
754.115	3161
754.166	3155
754.217	3078
754.269	3083
754.32	3096
754.371	3066
754.422	3118
754.473	3079
754.524	3061
754.575	3065
754.626	3119
754.678	3027
754.729	3049
754.78	3063
754.831	3083
754.882	3043
754.933	3037
754.984	3076
755.035	3050
755.086	3115
755.138	3038
755.189	3019
755.24	3019
755.291	3035
755.342	3040
755.393	3021
755.444	3038
755.495	3004
755.547	3008
755.598	2995
755.649	3003
755.7	3041
755.751	3016
755.802	3003
755.853	2945
755.904	2944
755.955	3004
756.006	3004
756.058	3015
756.109	2941
756.16	3000
756.211	2975
756.262	2995
756.313	2939
756.364	2966
756.415	3006
756.466	2943
756.518	2946
756.569	2925
756.62	2956
756.671	2977
756.722	2957
756.773	2955
756.824	2899
756.875	2967
756.926	2918
756.977	2925
757.029	2904
757.08	2957
757.131	2950
757.182	2935
757.233	2932
757.284	2928
757.335	2917
757.386	2922
757.437	2918
757.488	2877
757.539	2841
757.59	2877
757.642	2938
757.693	2887
757.744	2899
757.795	2861
757.846	2904
757.897	2829
757.948	2808
757.999	2962
758.05	2817
758.101	2819
758.152	2905
758.203	2875
758.255	2854
758.306	2874
758.357	2865
758.408	2871
758.459	2861
758.51	2858.01
758.561	2872.56
758.612	2857.56
758.663	2847.72
758.714	2830.32
758.765	2835.97
758.816	2816.36
758.867	2797.6
758.919	2815.47
758.97	2787.19
759.021	2778.18
759.072	2780.31
759.123	2832.72
759.174	2783.64
759.225	2759.6
759.276	2781.53
759.327	2805.48
759.378	2802.19
759.429	2775.63
759.48	2773.86
759.531	2773.99
759.582	2774.81
759.633	2751.73
759.685	2744.61
759.736	2739.65
759.787	2797.5
759.838	2761.13
759.889	2760.93
759.94	2716.83
759.991	2775.39
760.042	2710.5
760.093	2724
760.144	2719.29
760.195	2732.05
760.246	2702.29
760.297	2735.36
760.348	2701.58
760.399	2737.07
760.45	2720.18
760.501	2707.51
760.552	2656.42
760.603	2690.19
760.655	2722.17
760.706	2707.32
760.757	2684.03
760.808	2695.7
760.859	2685.55
760.91	2664.81
760.961	2674.36
761.012	2679.52
761.063	2659.25
761.114	2660.6
761.165	2635.58
761.216	2633.77
761.267	2658.52
761.318	2660.29
761.369	2647.3
761.42	2660.75
761.471	2612.95
761.522	2659.94
761.573	2612.35
761.624	2622.09
761.675	2624.8
761.726	2627.53
761.777	2620.18
761.828	2617.4
761.88	2594.66
761.931	2634.92
761.982	2607.21
762.033	2620.53
762.084	2589.11
762.135	2599.25
762.186	2596.81
762.237	2589.87
762.288	2608.16
762.339	2604.55
762.39	2592.36
762.441	2582.8
762.492	2563.61
762.543	2592.88
762.594	2589.53
762.645	2562.18
762.696	2559.26
762.747	2590.77
762.798	2587.19
762.849	2529.91
762.9	2549.49
762.951	2567.05
763.002	2539.13
763.053	2549.81
763.104	2536.04
763.155	2562.37
763.206	2525.78
763.257	2496.98
763.308	2517.66
763.359	2515.11
763.41	2530.65
763.461	2552.18
763.512	2551.51
763.563	2523.29
763.614	2536.03
763.665	2554.88
763.678	2559
763.729	2518
763.78	2490
763.832	2535
763.883	2487
763.934	2466
763.986	2463
764.037	2515
764.088	2483
764.139	2522
764.191	2498
764.242	2512
764.293	2433
764.345	2500
764.396	2476
764.447	2462
764.498	2452
764.55	2480
764.601	2431
764.652	2496
764.704	2457
764.755	2501
764.806	2448
764.857	2475
764.909	2411
764.96	2476
765.011	2478
765.062	2494
765.114	2421
765.165	2485
765.216	2497
765.268	2439
765.319	2469
765.37	2462
765.421	2427
765.473	2463
765.524	2410
765.575	2468
765.626	2503
765.678	2459
765.729	2447
765.78	2461
765.831	2414
765.883	2398
765.934	2410
765.985	2459
766.036	2407
766.088	2413
766.139	2414
766.19	2366
766.242	2332
766.293	2356
766.344	2372
766.395	2376
766.447	2377
766.498	2400
766.549	2392
766.6	2388
766.652	2344
766.703	2372
766.754	2351
766.805	2384
766.857	2330
766.908	2331
766.959	2353
767.01	2369
767.062	2368
767.113	2332
767.164	2323
767.215	2289
767.267	2356
767.318	2326
767.369	2310
767.42	2314
767.472	2344
767.523	2275
767.574	2288
767.625	2307
767.677	2315
767.728	2343
767.779	2290
767.83	2326
767.882	2285
767.933	2284
767.984	2336
768.035	2289
768.087	2294
768.138	2299
768.189	2304
768.24	2244
768.292	2257
768.343	2281
768.394	2236
768.445	2278
768.497	2223
768.548	2185
768.599	2226
768.65	2238
768.701	2232
768.753	2245
768.804	2233
768.855	2217
768.906	2200
768.958	2225
769.009	2213
769.06	2181
769.111	2213
769.163	2202
769.214	2191
769.265	2166
769.316	2187
769.367	2168
769.419	2204
769.47	2175
769.521	2175
769.572	2208
769.624	2181
769.675	2214
769.726	2197
769.777	2174
769.828	2156
769.88	2162
769.931	2156
769.982	2200
770.033	2164
770.085	2150
770.136	2169
770.187	2141
770.238	2173
770.289	2142
770.341	2149
770.392	2118
770.443	2109
770.494	2180
770.546	2110
770.597	2143
770.648	2106
770.699	2139
770.75	2090
770.802	2128
770.853	2109
770.904	2107
770.955	2098
771.006	2129
771.058	2093
771.109	2079
771.16	2042
771.211	2066
771.263	2050
771.314	2098
771.365	2085
771.416	2103
771.467	2060
771.519	2009
771.57	2056
771.621	2071
771.672	2075
771.723	2072
771.775	2087
771.826	2050
771.877	2043
771.928	2022
771.979	2060
772.031	2025
772.082	2038
772.133	2052
772.184	2026
772.235	2040
772.287	2034
772.338	2053
772.389	2055
772.44	2023
772.491	1983
772.543	2023
772.594	1983
772.645	2039
772.696	1965
772.747	2026
772.799	1976
772.85	2014
772.901	1994
772.952	2005
773.003	1992
773.055	1958
773.106	1956
773.157	1980
773.208	2026
773.259	1960
773.31	1998
773.362	1969
773.413	1980
773.464	1932
773.515	1949
773.566	1972
773.618	1958
773.669	1974
773.72	1953
773.771	1976
773.822	1909
773.873	1947
773.925	1940
773.976	1950
774.027	1888
774.078	1917
774.129	1909
774.18	1940
774.232	1896
774.283	1960
774.334	1889
774.385	1900
774.436	1894
774.488	1918
774.539	1919
774.59	1897
774.641	1896
774.692	1893
774.743	1851
774.795	1879
774.846	1877
774.897	1891
774.948	1908
774.999	1898
775.05	1895
775.102	1857
775.153	1895
775.204	1907
775.255	1866
775.306	1867
775.357	1877
775.409	1844
775.46	1821
775.511	1855
775.562	1845
775.613	1862
775.664	1837
775.716	1854
775.767	1832
775.818	1843
775.869	1837
775.92	1826
775.971	1845
776.023	1827
776.074	1867
776.125	1808
776.176	1798
776.227	1808
776.278	1829
776.329	1865
776.381	1799
776.432	1833
776.483	1786
776.534	1808
776.585	1802
776.636	1813
776.688	1803
776.739	1757
776.79	1782
776.841	1804
776.892	1785
776.943	1817
776.994	1755
777.046	1790
777.097	1815
777.148	1789
777.199	1748
777.25	1779
777.301	1785
777.352	1771
777.404	1790
777.455	1784
777.506	1733
777.557	1706
777.608	1768
777.659	1732
777.71	1755
777.762	1741
777.813	1746
777.864	1737
777.915	1729
777.966	1755
778.017	1720
778.068	1748
778.12	1730
778.171	1711
778.222	1722
778.273	1763
778.324	1719
778.375	1699
778.426	1682
778.477	1710
778.529	1734
778.58	1685
778.631	1690
778.682	1721
778.733	1706
778.784	1728
778.835	1684
778.886	1702
778.938	1714
778.989	1714
779.04	1710
779.091	1658
779.142	1716
779.193	1664
779.244	1707
779.295	1677
779.347	1661
779.398	1697
779.449	1695
779.5	1665
779.551	1645
779.602	1642
779.653	1628
779.704	1667
779.755	1659
779.807	1630
779.858	1637
779.909	1653
779.96	1652
780.011	1656
780.062	1678
780.113	1664
780.164	1670
780.216	1653
780.267	1613
780.318	1659
780.369	1610
780.42	1616
780.471	1623
780.522	1590
780.573	1622
780.624	1631
780.675	1613
780.727	1607
780.778	1614
780.829	1611
780.88	1598
780.931	1596
780.982	1612
781.033	1616
781.084	1625
781.135	1588
781.187	1589
781.238	1614
781.289	1604
781.34	1594
781.391	1610
781.442	1610
781.493	1589
781.544	1564
781.595	1570
781.646	1563
781.698	1580
781.749	1591
781.8	1570
781.851	1571
781.902	1600
781.953	1588
782.004	1581
782.055	1588
782.106	1554
782.157	1543
782.208	1587
782.26	1565
782.311	1555
782.362	1548
782.413	1552
782.464	1542
782.515	1557
782.566	1549
782.617	1507
782.668	1550
782.719	1531
782.77	1531
782.821	1534
782.872	1525
782.924	1546
782.975	1538
783.026	1501
783.077	1547
783.128	1576
783.179	1545
783.23	1505
783.281	1491
783.332	1514
783.383	1506
783.434	1509
783.485	1476
783.536	1531
783.588	1498
783.639	1504
783.69	1501
783.741	1477
783.792	1516
783.843	1475
783.894	1490
783.945	1469
783.996	1489
784.047	1494
784.098	1483
784.149	1464
784.2	1466
784.252	1491
784.303	1444
784.354	1464
784.405	1483
784.456	1460
784.507	1455
784.558	1442
784.609	1424
784.66	1459
784.711	1414
784.762	1456
784.813	1455
784.864	1438
784.915	1419
784.966	1413
785.017	1423
785.068	1445
785.12	1375
785.171	1431
785.222	1401
785.273	1411
785.324	1435
785.375	1410
785.426	1417
785.477	1423
785.528	1414
785.579	1439
785.63	1434
785.681	1421
785.732	1365
785.783	1431
785.834	1397
785.885	1374
785.936	1366
785.987	1404
786.038	1425
786.089	1364
786.141	1391
786.192	1386
786.243	1374
786.294	1379
786.345	1374
786.396	1389
786.447	1357
786.498	1391
786.549	1331
786.6	1391
786.651	1386
786.702	1382
786.753	1388
786.804	1366
786.855	1348
786.906	1365
786.957	1338
787.008	1383
787.059	1327
787.11	1332
787.161	1345
787.212	1340
787.263	1341
787.314	1351
787.365	1307
787.416	1342
787.467	1333
787.518	1327
787.57	1298
787.621	1323
787.672	1312
787.723	1315
787.774	1285
787.825	1324
787.876	1322
787.927	1346
787.978	1304
788.029	1323
788.08	1327
788.131	1291
788.182	1295
788.233	1312
788.284	1319
788.335	1301
788.386	1272
788.437	1268
788.488	1289
788.539	1302
788.59	1294
788.641	1285
788.692	1288
788.743	1285
788.794	1269
788.845	1260
788.896	1297
788.947	1288
788.998	1254
789.049	1283
789.1	1331
789.151	1277
789.202	1268
789.253	1277
789.304	1277
789.355	1245
789.406	1248
789.457	1258
789.508	1225
789.559	1232
789.61	1237
789.661	1210
789.712	1264
789.763	1212
789.814	1230
789.865	1261
789.916	1273
789.967	1245
790.018	1224
790.069	1217
790.12	1237
790.171	1231
790.222	1216
790.273	1224
790.324	1209
790.375	1209
790.426	1193
790.477	1225
790.528	1229
790.579	1221
790.63	1225
790.681	1208
790.732	1211
790.783	1202
790.834	1198
790.885	1235
790.936	1216
790.987	1224
791.038	1191
791.089	1164
791.14	1235
791.191	1174
791.242	1194
791.293	1198
791.344	1178
791.395	1186
791.446	1188
791.497	1186
791.548	1199
791.599	1191
791.65	1171
791.701	1205
791.752	1187
791.803	1174
791.854	1182
791.905	1169
791.956	1151
792.007	1175
792.058	1161
792.109	1151
792.16	1155
792.211	1169
792.262	1184
792.313	1177
792.363	1166
792.414	1156
792.465	1139
792.516	1170
792.567	1159
792.618	1162
792.669	1164
792.72	1146
792.771	1134
792.822	1168
792.873	1136
792.924	1144
792.975	1149
793.026	1135
793.077	1139
793.128	1119
793.179	1112
793.23	1127
793.281	1132
793.332	1141
793.383	1123
793.434	1134
793.485	1118
793.536	1088
793.587	1106
793.638	1121
793.689	1107
793.74	1087
793.79	1111
793.841	1121
793.892	1107
793.943	1116
793.994	1118
794.045	1077
794.096	1118
794.147	1087
794.198	1096
794.249	1090
794.3	1100
794.351	1110
794.402	1109
794.453	1098
794.504	1080
794.555	1124
794.606	1077
794.657	1081
794.708	1075
794.758	1085
794.809	1069
794.86	1107
794.911	1061
794.962	1064
795.013	1058
795.064	1067
795.115	1048
795.166	1050
795.217	1071
795.268	1070
795.319	1045
795.37	1063
795.421	1049
795.472	1030
795.523	1070
795.573	1046
795.624	1044
795.675	1064
795.726	1031
795.777	1042
795.828	1037
795.879	1065
795.93	1034
795.981	1057
796.032	1049
796.083	1037
796.134	1044
796.185	1036
796.236	1031
796.286	1060
796.337	1029
796.388	1021
796.439	1058
796.49	1029
796.541	1038
796.592	1035
796.643	1033
796.694	1019
796.745	1016
796.796	1045
796.847	1030
796.897	999
796.948	1013
796.999	996
797.05	997
797.101	989
797.152	1011
797.203	1022
797.254	1011
797.305	1012
797.356	1017
797.407	973
797.458	989
797.508	986
797.559	996
797.61	1009
797.661	971
797.712	1016
797.763	988
797.814	989
797.865	978
797.916	1013
797.967	979
798.018	980
798.068	968
798.119	999
798.17	951
798.221	994
798.272	967
798.323	997
798.374	962
798.425	982
798.476	994
798.526	965
798.577	943
798.628	966
798.679	949
798.73	947
798.781	951
798.832	974
798.883	963
798.934	976
798.984	965
799.035	934
799.086	942
799.137	968
799.188	940
799.239	935
799.29	926
799.341	898
799.392	995
799.443	960
799.493	916
799.544	938
799.595	959
799.646	932
799.697	940
799.748	914
799.799	925
799.85	928
799.9	942
799.951	912
800.002	918
800.053	901
800.104	928
800.155	914
800.206	926
800.257	916
800.307	918
800.358	904
800.409	916
800.46	914
800.511	912
800.562	901
800.613	905
800.664	913
800.714	890
800.765	900
800.816	918
800.867	894
800.918	879
800.969	893
801.02	884
801.07	890
801.121	907
801.172	884
801.223	861
801.274	874
801.325	897
801.376	886
801.427	878
801.477	908
801.528	893
801.579	899
801.63	895
801.681	867
801.732	886
801.783	886
801.833	857
801.884	896
801.935	871
801.986	866
802.037	893
802.088	872
802.139	875
802.189	859
802.24	865
802.291	851
802.342	845
802.393	862
802.444	874
802.495	865
802.545	850
802.596	878
802.647	862
802.698	838
802.749	852
802.8	875
802.85	862
802.901	876
802.952	853
803.003	863
803.054	860
803.105	845
803.155	825
803.206	852
803.257	830
803.308	822
803.359	824
803.41	829
803.46	852
803.511	844
803.562	850
803.613	841
803.664	825
803.715	815
803.765	825
803.816	782
803.867	831
803.918	826
803.969	835
804.02	836
804.07	817
804.121	813
804.172	814
804.223	824
804.274	820
804.325	819
804.375	816
804.426	836
804.477	824
804.528	827
804.579	818
804.63	786
804.68	796
804.731	790
804.782	808
804.833	804
804.884	794
804.934	793
804.985	802
805.036	792
805.087	794
805.138	815
805.188	778
805.239	805
805.29	779
805.341	789
805.392	793
805.443	780
805.493	802.036
805.544	811.865
805.595	783.216
805.646	773.549
805.697	795.653
805.747	766.186
805.798	788.417
805.849	809.647
805.9	777.207
805.951	776.362
806.001	767.429
806.052	755.667
806.103	772.478
806.154	775.855
806.205	765.708
806.255	771.897
806.306	788.849
806.357	772.209
806.408	775.789
806.459	762.828
806.509	763.767
806.56	775.02
806.611	766.118
806.662	756.453
806.713	780.822
806.763	779.813
806.814	771.626
806.865	767.787
806.916	765.278
806.967	772.67
807.017	777.824
807.068	760.553
807.119	753.568
807.17	754.494
807.22	757.837
807.271	742.468
807.322	747.017
807.373	746.141
807.424	757.428
807.474	754.659
807.525	744.393
807.576	735.119
807.627	737.014
807.678	745.431
807.728	736.935
807.779	729.855
807.83	748.28
807.881	743.727
807.931	730.042
807.982	740.455
808.033	742.998
808.084	740.423
808.135	740.17
808.185	724.37
808.236	718.351
808.287	733.288
808.338	731.627
808.388	733.138
808.439	738.779
808.49	722.495
808.541	727.784
808.591	722.807
808.642	725.537
808.693	724.055
808.744	716.095
808.795	715.199
808.845	719.3
808.896	726.748
808.947	707.881
808.998	712.701
809.048	713.256
809.099	718.654
809.15	697.893
809.201	717.24
809.251	713.905
809.302	701.997
809.353	730.87
809.404	700.878
809.454	710.707
809.505	705.331
809.556	710.317
809.607	695.175
809.658	714.077
809.708	712.371
809.759	712.858
809.81	712.555
809.861	708.362
809.911	693.745
809.962	684.689
810.013	683.993
810.064	696.72
810.114	715.409
810.165	696.75
810.216	688.43
810.267	694.251
810.317	699.074
810.368	686.454
810.419	688.699
810.469	688.016
810.52	697.84
810.571	672.12
810.622	694.143
810.627	697
810.678	672
810.729	683
810.78	712
810.831	689
810.882	677
810.933	682
810.984	645
811.035	688
811.086	687
811.137	665
811.188	690
811.239	666
811.29	687
811.341	649
811.392	679
811.443	677
811.494	670
811.545	670
811.596	686
811.648	659
811.699	650
811.75	652
811.801	672
811.852	676
811.903	649
811.954	664
812.005	659
812.056	679
812.107	689
812.158	655
812.209	650
812.26	677
812.311	632
812.362	647
812.413	653
812.464	652
812.515	655
812.566	655
812.617	633
812.668	637
812.719	634
812.77	660
812.821	621
812.872	636
812.923	646
812.974	637
813.025	642
813.076	650
813.127	638
813.178	644
813.229	648
813.28	644
813.331	657
813.382	644
813.433	636
813.484	635
813.535	628
813.586	633
813.637	623
813.688	642
813.739	607
813.79	606
813.841	626
813.892	622
813.943	634
813.994	611
814.045	605
814.096	611
814.147	600
814.198	629
814.249	634
814.3	618
814.351	618
814.402	602
814.453	626
814.504	616
814.555	631
814.606	617
814.657	613
814.708	604
814.759	624
814.81	619
814.861	611
814.912	613
814.963	626
815.014	619
815.065	604
815.116	596
815.167	608
815.217	641
815.268	614
815.319	609
815.37	599
815.421	586
815.472	612
815.523	598
815.574	581
815.625	601
815.676	614
815.727	577
815.778	607
815.829	615
815.88	583
815.931	584
815.982	588
816.033	571
816.084	578
816.135	585
816.186	596
816.237	588
816.288	584
816.339	576
816.39	588
816.441	583
816.492	579
816.543	581
816.594	579
816.645	588
816.696	582
816.747	589
816.798	567
816.849	597
816.9	597
816.951	591
817.001	596
817.052	573
817.103	585
817.154	565
817.205	571
817.256	595
817.307	575
817.358	573
817.409	572
817.46	569
817.511	566
817.562	554
817.613	562
817.664	580
817.715	541
817.766	563
817.817	554
817.868	567
817.919	560
817.97	536
818.021	562
818.071	549
818.122	550
818.173	536
818.224	561
818.275	558
818.326	556
818.377	558
818.428	548
818.479	569
818.53	557
818.581	556
818.632	559
818.683	554
818.734	541
818.785	568
818.836	534
818.887	561
818.938	538
818.988	555
819.039	544
819.09	536
819.141	546
819.192	536
819.243	549
819.294	535
819.345	575
819.396	541
819.447	580
819.498	531
819.549	548
819.6	537
819.651	525
819.702	554
819.753	555
819.803	542
819.854	525
819.905	531
819.956	538
820.007	519
820.058	547
820.109	535
820.16	518
820.211	534
820.262	540
820.313	523
820.364	517
820.415	509
820.465	510
820.516	529
820.567	521
820.618	523
820.669	527
820.72	511
820.771	514
820.822	504
820.873	513
820.924	505
820.975	502
821.026	516
821.076	529
821.127	508
821.178	523
821.229	491
821.28	518
821.331	511
821.382	514
821.433	517
821.484	490
821.535	492
821.586	502
821.637	505
821.687	520
821.738	517
821.789	535
821.84	528
821.891	488
821.942	484
821.993	489
822.044	498
822.095	513
822.146	502
822.196	514
822.247	495
822.298	490
822.349	494
822.4	494
822.451	503
822.502	493
822.553	517
822.604	484
822.655	487
822.706	485
822.756	510
822.807	506
822.858	489
822.909	484
822.96	490
823.011	502
823.062	475
823.113	483
823.164	474
823.214	477
823.265	477
823.316	483
823.367	495
823.418	489
823.469	483
823.52	488
823.571	481
823.622	488
823.672	472
823.723	475
823.774	496
823.825	471
823.876	482
823.927	498
823.978	491
824.029	490
824.08	465
824.13	470
824.181	482
824.232	474
824.283	456
824.334	489
824.385	483
824.436	471
824.487	482
824.537	458
824.588	468
824.639	496
824.69	475
824.741	463
824.792	479
824.843	459
824.893	479
824.944	470
824.995	470
825.046	460
825.097	471
825.148	471
825.199	458
825.25	470
825.3	462
825.351	456
825.402	461
825.453	454
825.504	443
825.555	450
825.606	469
825.657	454
825.707	451
825.758	466
825.809	471
825.86	471
825.911	449
825.962	450
826.013	462
826.063	451
826.114	470
826.165	449
826.216	466
826.267	462
826.318	458
826.369	461
826.419	465
826.47	453
826.521	426
826.572	445
826.623	462
826.674	432
826.725	438
826.775	437
826.826	450
826.877	450
826.928	434
826.979	443
827.03	426
827.08	446
827.131	441
827.182	439
827.233	447
827.284	444
827.335	440
827.386	452
827.436	446
827.487	448
827.538	434
827.589	434
827.64	426
827.691	453
827.741	440
827.792	440
827.843	447
827.894	438
827.945	430
827.996	441
828.046	437
828.097	436
828.148	429
828.199	425
828.25	437
828.301	438
828.351	421
828.402	436
828.453	431
828.504	454
828.555	430
828.606	434
828.656	413
828.707	416
828.758	423
828.809	424
828.86	440
828.911	450
828.961	416
829.012	418
829.063	418
829.114	415
829.165	414
829.216	433
829.266	418
829.317	447
829.368	415
829.419	411
829.47	411
829.52	410
829.571	412
829.622	429
829.673	409
829.724	417
829.774	413
829.825	424
829.876	422
829.927	413
829.978	411
830.029	416
830.079	401
830.13	416
830.181	412
830.232	417
830.283	415
830.333	417
830.384	398
830.435	420
830.486	406
830.537	412
830.587	419
830.638	401
830.689	417
830.74	406
830.791	413
830.841	387
830.892	409
830.943	419
830.994	390
831.045	401
831.095	422
831.146	406
831.197	404
831.248	408
831.299	399
831.349	407
831.4	387
831.451	412
831.502	405
831.553	398
831.603	398
831.654	391
831.705	402
831.756	395
831.807	397
831.857	392
831.908	384
831.959	395
832.01	393
832.061	375
832.111	384
832.162	405
832.213	393
832.264	379
832.315	401
832.365	388
832.416	385
832.467	385
832.518	381
832.568	388
832.619	408
832.67	407
832.721	386
832.772	382
832.822	403
832.873	390
832.924	379
832.975	388
833.025	399
833.076	386
833.127	389
833.178	380
833.229	405
833.279	370
833.33	381
833.381	384
833.432	372
833.482	369
833.533	370
833.584	369
833.635	384
833.685	370
833.736	381
833.787	391
833.838	370
833.889	370
833.939	363
833.99	350
834.041	377
834.092	377
834.142	383
834.193	385
834.244	383
834.295	376
834.345	377
834.396	379
834.447	385
834.498	356
834.548	387
834.599	383
834.65	366
834.701	380
834.751	352
834.802	367
834.853	371
834.904	377
834.954	361
835.005	347
835.056	359
835.107	364
835.157	387
835.208	369
835.259	371
835.31	369
835.36	341
835.411	371
835.462	368
835.513	345
835.563	372
835.614	365
835.665	364
835.716	348
835.766	352
835.817	369
835.868	356
835.919	369
835.969	365
836.02	358
836.071	373
836.122	357
836.172	358
836.223	344
836.274	353
836.325	343
836.375	347
836.426	353
836.477	381
836.528	351
836.578	349
836.629	362
836.68	356
836.73	344
836.781	350
836.832	349
836.883	354
836.933	348
836.984	355
837.035	343
837.086	349
837.136	350
837.187	342
837.238	340
837.288	362
837.339	351
837.39	346
837.441	345
837.491	356
837.542	343
837.593	352
837.643	324
837.694	341
837.745	340
837.796	332
837.846	337
837.897	333
837.948	349
837.999	327
838.049	340
838.1	353
838.151	338
838.201	338
838.252	353
838.303	337
838.354	356
838.404	341
838.455	357
838.506	359
838.556	347
838.607	342
838.658	341
838.708	332
838.759	335
838.81	330
838.861	351
838.911	336
838.962	335
839.013	328
839.063	327
839.114	338
839.165	332
839.216	344
839.266	340
839.317	323
839.368	331
839.418	335
839.469	325
839.52	332
839.57	335
839.621	329
839.672	335
839.722	337
839.773	332
839.824	332
839.875	345
839.925	332
839.976	334
840.027	327
840.077	346
840.128	330
840.179	326
840.229	332
840.28	321
840.331	336
840.381	326
840.432	324
840.483	332
840.534	322
840.584	316
840.635	309
840.686	322
840.736	333
840.787	322
840.838	326
840.888	325
840.939	322
840.99	327
841.04	318
841.091	320
841.142	326
841.192	320
841.243	301
841.294	324
841.344	313
841.395	326
841.446	319
841.496	334
841.547	314
841.598	322
841.648	307
841.699	314
841.75	321
841.8	314
841.851	336
841.902	299
841.952	320
842.003	311
842.054	314
842.104	310
842.155	316
842.206	326
842.256	306
842.307	314
842.358	296
842.408	316
842.459	333
842.51	317
842.56	318
842.611	313
842.662	318
842.712	310
842.763	321
842.814	327
842.864	311
842.915	316
842.966	313
843.016	320
843.067	313
843.118	309
843.168	300
843.219	311
843.269	312
843.32	298
843.371	312
843.421	319
843.472	302
843.523	300
843.573	303
843.624	326
843.675	298
843.725	302
843.776	320
843.827	311
843.877	308
843.928	296
843.979	298
844.029	291
844.08	291
844.13	300
844.181	297
844.232	307
844.282	287
844.333	302
844.384	313
844.434	286
844.485	289
844.536	294
844.586	300
844.637	288
844.687	292
844.738	289
844.789	302
844.839	303
844.89	293
844.941	301
844.991	291
845.042	305
845.092	277
845.143	298
845.194	296
845.244	292
845.295	283
845.346	310
845.396	302
845.447	296
845.497	285
845.548	278
845.599	304
845.649	292
845.7	286
845.75	275
845.801	299
845.852	276
845.902	277
845.953	300
846.004	289
846.054	288
846.105	294
846.155	282
846.206	307
846.257	291
846.307	286
846.358	302
846.409	287
846.459	306
846.51	274
846.56	294
846.611	292
846.661	290
846.712	283
846.763	275
846.813	294
846.864	293
846.915	281
846.965	276
847.016	291
847.066	286
847.117	280
847.168	289
847.218	281
847.269	281
847.319	283
847.37	284
847.421	280
847.471	276
847.522	265
847.572	282
847.623	275
847.674	275
847.724	277
847.775	279
847.825	284
847.876	289
847.926	274
847.977	287
848.028	288
848.078	273
848.129	274
848.179	266
848.23	280
848.281	260
848.331	273
848.382	277
848.432	276
848.483	281
848.534	270
848.584	259
848.635	274
848.685	274
848.736	280
848.786	270
848.837	278
848.888	276
848.938	267
848.989	272
849.039	282
849.09	277
849.14	278
849.191	273
849.242	273
849.292	283
849.343	255
849.393	265
849.444	276
849.494	252
849.545	264
849.596	271
849.646	265
849.697	254
849.747	261
849.798	269
849.848	271
849.899	265
849.95	267
850	262
850.051	255
850.101	276
850.152	243
850.202	266
850.253	266
850.303	265
850.354	265
850.405	276
850.455	265
850.506	265
850.556	263
850.607	261
850.657	273
850.708	253
850.758	259
850.809	256
850.86	255
850.91	262
850.961	266
851.011	252
851.062	270
851.112	261
851.163	250
851.213	257
851.264	256
851.314	258
851.365	251
851.416	256
851.466	273
851.517	250
851.567	250
851.618	259
851.668	257
851.719	252
851.769	256
851.82	252
851.87	243
851.921	257
851.971	253
852.022	251
852.073	249
852.123	257
852.174	251
852.224	264
852.275	253
852.325	248.024
852.376	246.001
852.426	249
852.477	234.547
852.527	241.2
852.578	249.998
852.628	253.092
852.679	246.219
852.729	234.276
852.78	252.804
852.831	240.184
852.881	250.911
852.932	248.455
852.982	235.823
853.033	248.069
853.083	264.402
853.134	245.106
853.184	255.518
853.235	240.617
853.285	242.749
853.336	241.718
853.386	242.423
853.437	240.022
853.487	233.998
853.538	243.071
853.588	241.656
853.639	249.26
853.689	240.155
853.74	248.819
853.79	246.12
853.841	238.467
853.891	241.28
853.942	242.005
853.992	233.389
854.043	237.2
854.093	245.852
854.144	239.162
854.194	241.595
854.245	243.56
854.295	242.021
854.346	237.063
854.396	230.191
854.447	233.426
854.497	225.951
854.548	239.917
854.598	229.118
854.649	245.776
854.699	244.45
854.75	241.635
854.8	233.48
854.851	240.294
854.901	227.296
854.952	239.944
855.002	233.272
855.053	233.489
855.103	238.877
855.154	239.493
855.204	234.467
855.255	236.929
855.305	226.038
855.356	229.57
855.406	223.321
855.457	228.931
855.507	231.551
855.558	233.305
855.608	228.278
855.659	227.611
855.709	235.508
855.76	230.37
855.81	226.245
855.861	224.034
855.911	230.716
855.962	221.556
856.012	222.246
856.063	226.95
856.113	222.539
856.164	229.072
856.214	227.68
856.265	227.909
856.315	232.578
856.366	230.623
856.416	228.876
856.467	230.611
856.517	231.108
856.568	235.368
856.618	227.775
856.668	230.52
856.719	226.418
856.769	221.087
856.82	221.787
856.87	225.392
856.921	230.229
856.971	232.698
857.022	232.031
857.072	221.554
857.123	223.374
857.173	220.691
857.224	217.454
857.274	221.793
857.325	223.57
857.352	229
857.403	240
857.453	216
857.504	210
857.555	231
857.606	223
857.656	220
857.707	224
857.758	218
857.809	214
857.859	209
857.91	230
857.961	230
858.012	221
858.063	217
858.113	217
858.164	219
858.215	218
858.266	200
858.316	210
858.367	216
858.418	218
858.469	207
858.519	223
858.57	207
858.621	217
858.672	216
858.722	218
858.773	210
858.824	213
858.875	209
858.925	222
858.976	210
859.027	226
859.078	205
859.128	203
859.179	219
859.23	218
859.281	214
859.331	216
859.382	209
859.433	224
859.483	214
859.534	216
859.585	223
859.636	212
859.686	205
859.737	210
859.788	203
859.839	211
859.889	203
859.94	206
859.991	219
860.042	218
860.092	201
860.143	223
860.194	217
860.245	220
860.295	194
860.346	210
860.397	223
860.447	225
860.498	193
860.549	210
860.6	209
860.65	215
860.701	216
860.752	209
860.802	212
860.853	193
860.904	198
860.955	210
861.005	211
861.056	219
861.107	199
861.158	200
861.208	199
861.259	202
861.31	186
861.36	195
861.411	205
861.462	211
861.513	205
861.563	215
861.614	204
861.665	218
861.715	197
861.766	200
861.817	210
861.868	216
861.918	196
861.969	201
862.02	226
862.07	205
862.121	197
862.172	201
862.223	204
862.273	189
862.324	201
862.375	193
862.425	191
862.476	215
862.527	201
862.577	198
862.628	202
862.679	201
862.73	188
862.78	201
862.831	206
862.882	195
862.932	194
862.983	192
863.034	202
863.084	208
863.135	206
863.186	196
863.237	196
863.287	204
863.338	185
863.389	206
863.439	194
863.49	194
863.541	186
863.591	193
863.642	202
863.693	183
863.744	204
863.794	191
863.845	207
863.896	209
863.946	216
863.997	206
864.048	199
864.098	205
864.149	196
864.2	188
864.25	188
864.301	203
864.352	200
864.402	198
864.453	197
864.504	195
864.555	205
864.605	197
864.656	196
864.707	198
864.757	197
864.808	176
864.859	205
864.909	184
864.96	188
865.011	196
865.061	201
865.112	190
865.163	196
865.213	189
865.264	195
865.315	197
865.365	196
865.416	195
865.467	193
865.517	185
865.568	195
865.619	174
865.669	203
865.72	178
865.771	182
865.821	169
865.872	190
865.923	196
865.973	185
866.024	180
866.075	195
866.125	196
866.176	200
866.227	186
866.277	200
866.328	193
866.379	183
866.429	203
866.48	190
866.531	205
866.581	191
866.632	183
866.683	182
866.733	202
866.784	187
866.835	197
866.885	194
866.936	186
866.987	185
867.037	185
867.088	188
867.138	198
867.189	187
867.24	188
867.29	191
867.341	187
867.392	188
867.442	182
867.493	186
867.544	184
867.594	189
867.645	178
867.696	186
867.746	189
867.797	181
867.848	178
867.898	183
867.949	193
867.999	189
868.05	180
868.101	194
868.151	181
868.202	187
868.253	189
868.303	181
868.354	194
868.405	181
868.455	184
868.506	189
868.556	177
868.607	186
868.658	170
868.708	179
868.759	180
868.81	184
868.86	176
868.911	181
868.961	184
869.012	193
869.063	178
869.113	172
869.164	179
869.215	193
869.265	180
869.316	181
869.367	166
869.417	188
869.468	186
869.518	177
869.569	173
869.62	180
869.67	173
869.721	183
869.771	182
869.822	179
869.873	177
869.923	186
869.974	177
870.025	167
870.075	169
870.126	178
870.176	186
870.227	182
870.278	162
870.328	177
870.379	162
870.43	168
870.48	167
870.531	178
870.581	180
870.632	175
870.683	175
870.733	175
870.784	180
870.834	173
870.885	175
870.936	186
870.986	180
871.037	184
871.087	166
871.138	177
871.189	178
871.239	170
871.29	173
871.34	173
871.391	174
871.442	182
871.492	171
871.543	165
871.593	182
871.644	174
871.695	151
871.745	156
871.796	180
871.846	177
871.897	175
871.948	170
871.998	169
872.049	162
872.099	161
872.15	171
872.201	171
872.251	181
872.302	173
872.352	173
872.403	186
872.453	164
872.504	165
872.555	166
872.605	163
872.656	164
872.706	159
872.757	168
872.808	167
872.858	163
872.909	157
872.959	161
873.01	156
873.06	170
873.111	155
873.162	165
873.212	169
873.263	167
873.313	157
873.364	163
873.415	171
873.465	158
873.516	164
873.566	173
873.617	160
873.667	160
873.718	164
873.769	158
873.819	173
873.87	157
873.92	169
873.971	175
874.021	154
874.072	159
874.123	151
874.173	162
874.224	158
874.274	176
874.325	167
874.375	158
874.426	169
874.477	164
874.527	157
874.578	159
874.628	168
874.679	168
874.729	163
874.78	154
874.83	165
874.881	164
874.932	161
874.982	161
875.033	161
875.083	153
875.134	153
875.184	159
875.235	164
875.285	162
875.336	151
875.387	153
875.437	162
875.488	157
875.538	151
875.589	139
875.639	159
875.69	147
875.74	151
875.791	157
875.841	152
875.892	157
875.943	162
875.993	156
876.044	157
876.094	160
876.145	163
876.195	150
876.246	155
876.296	160
876.347	149
876.397	160
876.448	154
876.499	160
876.549	154
876.6	148
876.65	154
876.701	160
876.751	147
876.802	154
876.852	160
876.903	155
876.953	148
877.004	153
877.054	158
877.105	150
877.155	150
877.206	154
877.257	166
877.307	160
877.358	145
877.408	151
877.459	153
877.509	157
877.56	152
877.61	139
877.661	143
877.711	158
877.762	157
877.812	146
877.863	167
877.913	163
877.964	152
878.014	151
878.065	163
878.115	152
878.166	154
878.216	151
878.267	151
878.318	149
878.368	148
878.419	157
878.469	152
878.52	149
878.57	141
878.621	144
878.671	142
878.722	156
878.772	141
878.823	143
878.873	149
878.924	145
878.974	142
879.025	137
879.075	148
879.126	146
879.176	165
879.227	155
879.277	153
879.328	143
879.378	145
879.429	149
879.479	148
879.53	142
879.58	132
879.631	134
879.681	149
879.732	150
879.782	150
879.833	148
879.883	145
879.934	155
879.984	143
880.035	144
880.085	151
880.136	155
880.186	150
880.237	152
880.287	150
880.338	154
880.388	148
880.439	132
880.489	139
880.54	129
880.59	143
880.641	142
880.691	151
880.742	146
880.792	137
880.842	146
880.893	154
880.943	136
880.994	141
881.044	141
881.095	144
881.145	153
881.196	145
881.246	141
881.297	135
881.347	146
881.398	144
881.448	140
881.499	138
881.549	157
881.6	149
881.65	151
881.701	142
881.751	146
881.802	143
881.852	123
881.902	133
881.953	148
882.003	138
882.054	135
882.104	143
882.155	150
882.205	139
882.256	140
882.306	136
882.357	148
882.407	135
882.458	130
882.508	143
882.559	136
882.609	137
882.659	137
882.71	141
882.76	146
882.811	142
882.861	136
882.912	151
882.962	136
883.013	141
883.063	121
883.114	133
883.164	135
883.214	133
883.265	125
883.315	141
883.366	139
883.416	142
883.467	123
883.517	135
883.568	139
883.618	125
883.669	136
883.719	132
883.769	138
883.82	144
883.87	129
883.921	133
883.971	126
884.022	132
884.072	135
884.123	138
884.173	138
884.223	141
884.274	130
884.324	131
884.375	133
884.425	120
884.476	127
884.526	131
884.577	130
884.627	146
884.677	131
884.728	129
884.778	135
884.829	132
884.879	129
884.93	130
884.98	134
885.03	133
885.081	128
885.131	134
885.182	133
885.232	134
885.283	126
885.333	126
885.383	129
885.434	129
885.484	132
885.535	125
885.585	138
885.635	135
885.686	127
885.736	129
885.787	127
885.837	137
885.888	121
885.938	141
885.988	132
886.039	134
886.089	123
886.14	128
886.19	127
886.241	128
886.291	133
886.341	132
886.392	123
886.442	125
886.493	112
886.543	132
886.593	134
886.644	138
886.694	124
886.745	135
886.795	127
886.845	119
886.896	126
886.946	126
886.997	127
887.047	132
887.097	121
887.148	128
887.198	131
887.249	126
887.299	119
887.349	118
887.4	130
887.45	124
887.501	125
887.551	115
887.602	123
887.652	122
887.702	126
887.753	113
887.803	125
887.853	124
887.904	121
887.954	114
888.005	124
888.055	128
888.105	120
888.156	117
888.206	133
888.257	134
888.307	123
888.357	120
888.408	122
888.458	121
888.509	119
888.559	113
888.609	119
888.66	127
888.71	126
888.76	125
888.811	127
888.861	114
888.912	115
888.962	108
889.012	121
889.063	113
889.113	130
889.163	119
889.214	127
889.264	120
889.315	118
889.365	114
889.415	111
889.466	124
889.516	124
889.566	116
889.617	133
889.667	114
889.718	122
889.768	119
889.818	118
889.869	121
889.919	120
889.969	117
890.02	128
890.07	116
890.12	114
890.171	110
890.221	128
890.272	123
890.322	121
890.372	123
890.423	124
890.473	113
890.523	106
890.574	110
890.624	112
890.674	117
890.725	107
890.775	114
890.826	125
890.876	117
890.926	117
890.977	126
891.027	117
891.077	108
891.128	107
891.178	115
891.228	127
891.279	114
891.329	114
891.379	118
891.43	114
891.48	106
891.53	115
891.581	110
891.631	122
891.681	110
891.732	110
891.782	112
891.832	125
891.883	120
891.933	115
891.983	108
892.034	112
892.084	111
892.134	116
892.185	110
892.235	111
892.286	118
892.336	109
892.386	106
892.437	122
892.487	113
892.537	110
892.587	105
892.638	109
892.688	111
892.738	104
892.789	111
892.839	113
892.889	117
892.94	115
892.99	107
893.04	116
893.091	116
893.141	96
893.191	103
893.242	108
893.292	116
893.342	124
893.393	102
893.443	108
893.493	113
893.544	112
893.594	103
893.644	118
893.695	113
893.745	114
893.795	100
893.846	120
893.896	114
893.946	112
893.996	108
894.047	113
894.097	123
894.147	113
894.198	101
894.248	98
894.298	105
894.349	107
894.399	99
894.449	120
894.5	114
894.55	99
894.6	103
894.65	102
894.701	103
894.751	112
894.801	103
894.852	107
894.902	105
894.952	114
895.003	98
895.053	97
895.103	114
895.153	107
895.204	94
895.254	104
895.304	112
895.355	96
895.405	103
895.455	116
895.505	110
895.556	111
895.606	94
895.656	110
895.707	104
895.757	111
895.807	105
895.858	103
895.908	107
895.958	100
896.008	105
896.059	107
896.109	100
896.159	108
896.21	88
896.26	99
896.31	105
896.36	98
896.411	96
896.461	99
896.511	108
896.561	115
896.612	99
896.662	97
896.712	114
896.763	109
896.813	99
896.863	111
896.913	98
896.964	104
897.014	95
897.064	103
897.115	109
897.165	95
897.215	92
897.265	98
897.316	100
897.366	108
897.416	97
897.466	106
897.517	105
897.567	103
897.617	94
897.667	94
897.718	96
897.768	103
897.818	105
897.868	99
897.919	105
897.969	112
898.019	95
898.069	97
898.12	97
898.17	110
898.22	93
898.27	93
898.321	112
898.371	90
898.421	95
898.471	98
898.522	109
898.572	108
898.622	98
898.672	98
898.723	102
898.773	107
898.823	91
898.873	102
898.924	102
898.974	104
899.024	96
899.074	95
899.125	94.5
899.175	94
899.225	94
899.275	95
899.326	91
899.376	93
899.426	89
899.476	98
899.527	107
899.577	91
899.627	100
899.677	96
899.728	96
899.778	100
899.828	97
899.878	96
899.928	101
899.979	104
