#Acq. time (s)=	3
#Accumulations=	2
#Range (nm)=	520...900
#Windows=	8
#Auto scanning=	Off
#Autofocus=	Off
#AutoExposure=	Off
#Spike filter=	Off
#Delay time (s)=	0
#Binning=	1
#Readout mode=	Signal
#DeNoise=	Off
#ICS correction=	Off
#Dark correction=	Off
#Inst. Process=	Off
#Detector temperature (°C)=	-59.98
#Instrument=	LabRAM HR Evol
#Detector=	Syncerity OE
#Objective=	x50_VIS
#Grating=	600 (500nm)
#ND Filter=	25%
#Laser=	514nm_Edge
#Hole=	199.981
#Range=	Visible
#StageXY=	Marzhauser
#StageZ=	Marzhauser
#X (µm)=	54.2
#Y (µm)=	9176.9
#Z (µm)=	-258.6
#Full time(mm:ss)=	1:32
#Project=	
#Sample=	
#Site=	
#Title=	PL_M1_280424
#Remark=	
#Date=	06.05.2024 16:38
#Acquired=	06.05.2024 16:38:37
520.044	62
520.097	55
520.149	46
520.201	59
520.254	51
520.306	46
520.359	41
520.411	53
520.464	49
520.516	51
520.569	41
520.621	62
520.674	55
520.726	51
520.778	44
520.831	48
520.883	51
520.936	48
520.988	47
521.041	50
521.093	53
521.146	58
521.198	43
521.25	54
521.303	52
521.355	53
521.408	53
521.46	56
521.513	52
521.565	52
521.617	45
521.67	56
521.722	45
521.775	52
521.827	54
521.88	50
521.932	52
521.984	47
522.037	45
522.089	58
522.142	52
522.194	56
522.247	47
522.299	53
522.352	47
522.404	48
522.456	42
522.509	56
522.561	61
522.614	54
522.666	47
522.719	55
522.771	41
522.823	54
522.876	51
522.928	54
522.981	52
523.033	56
523.086	44
523.138	48
523.19	50
523.243	65
523.295	52
523.348	56
523.4	51
523.453	54
523.505	44
523.557	52
523.61	53
523.662	47
523.715	48
523.767	54
523.82	51
523.872	55
523.924	46
523.977	49
524.029	54
524.082	48
524.134	43
524.186	54
524.239	51
524.291	58
524.344	45
524.396	47
524.449	60
524.501	51
524.553	47
524.606	57
524.658	56
524.711	55
524.763	43
524.815	53
524.868	50
524.92	51
524.973	50
525.025	56
525.078	51
525.13	56
525.182	48
525.235	47
525.287	48
525.34	57
525.392	37
525.444	54
525.497	46
525.549	53
525.602	49
525.654	48
525.706	54
525.759	51
525.811	44
525.864	50
525.916	53
525.969	50
526.021	42
526.073	52
526.126	59
526.178	51
526.231	41
526.283	57
526.335	45
526.388	53
526.44	39
526.493	50
526.545	48
526.597	51
526.65	43
526.702	51
526.755	49
526.807	56
526.859	50
526.912	54
526.964	47
527.017	51
527.069	48
527.121	53
527.174	61
527.226	58
527.279	46
527.331	45
527.383	45
527.436	54
527.488	47
527.54	50
527.593	49
527.645	55
527.698	46
527.75	57
527.802	53
527.855	49
527.907	41
527.96	46
528.012	49
528.064	53
528.117	46
528.169	54
528.222	53
528.274	45
528.326	48
528.379	50
528.431	47
528.484	53
528.536	43
528.588	50
528.641	51
528.693	50
528.745	51
528.798	55
528.85	48
528.903	49
528.955	56
529.007	54
529.06	48
529.112	52
529.164	43
529.217	54
529.269	52
529.322	54
529.374	47
529.426	46
529.479	49
529.531	46
529.584	51
529.636	54
529.688	50
529.741	51
529.793	44
529.845	44
529.898	50
529.95	49
530.003	42
530.055	47
530.107	48
530.16	52
530.212	51
530.264	41
530.317	51
530.369	52
530.422	51
530.474	46
530.526	52
530.579	55
530.631	52
530.683	43
530.736	53
530.788	54
530.841	51
530.893	41
530.945	54
530.998	55
531.05	47
531.102	43
531.155	56
531.207	49
531.259	52
531.312	39
531.364	53
531.417	59
531.469	47
531.521	53
531.574	57
531.626	49
531.678	54
531.731	51
531.783	58
531.835	51
531.888	51
531.94	54
531.992	61
532.045	47
532.097	50
532.15	42
532.202	53
532.254	53
532.307	61
532.359	51
532.411	55
532.464	55
532.516	54
532.568	57
532.621	63
532.673	54
532.726	48
532.778	52
532.83	59
532.883	49
532.935	52
532.987	44
533.04	63
533.092	54
533.144	55
533.197	53
533.249	57
533.301	55
533.354	59
533.406	57
533.458	49
533.511	59
533.563	59
533.615	50
533.668	59
533.72	56
533.773	60
533.825	50
533.877	61
533.93	64
533.982	60
534.034	51
534.087	65
534.139	62
534.191	63
534.244	66
534.296	63
534.348	62
534.401	70
534.453	60
534.505	66
534.558	63
534.61	68
534.662	60
534.715	66
534.767	74
534.819	69
534.872	70
534.924	79
534.976	80
535.029	76
535.081	65
535.133	76
535.186	78
535.238	82
535.29	67
535.343	88
535.395	74
535.447	76
535.5	71
535.552	75
535.604	74
535.657	67
535.709	71
535.761	68
535.814	67
535.866	70
535.918	69
535.971	73
536.023	69
536.075	67
536.128	63
536.18	76
536.232	74
536.285	70
536.337	63
536.389	66
536.442	70
536.494	70
536.546	69
536.599	71
536.651	68
536.703	69
536.755	60
536.808	70
536.86	67
536.912	71
536.965	66
537.017	74
537.069	61
537.122	68
537.174	57
537.226	70
537.279	67
537.331	58
537.383	63
537.436	72
537.488	66
537.54	69
537.593	68
537.645	67
537.697	63
537.75	58
537.802	58
537.854	71
537.906	63
537.959	65
538.011	57
538.063	67
538.116	79
538.168	70
538.22	63
538.273	68
538.325	62
538.377	69
538.43	65
538.482	62
538.534	69
538.586	70
538.639	60
538.691	69
538.743	65
538.796	71
538.848	59
538.9	64
538.953	69
539.005	66
539.057	69
539.109	61
539.162	61
539.214	72
539.266	58
539.319	69
539.371	67
539.423	67
539.476	60
539.528	67
539.58	66
539.633	77
539.685	70
539.737	68
539.789	70
539.842	73
539.894	63
539.946	70
539.999	75
540.051	68
540.103	67
540.155	73
540.208	69
540.26	64
540.312	60
540.365	75
540.417	69
540.469	76
540.521	66
540.574	70
540.626	69
540.678	69
540.731	64
540.783	64
540.835	75
540.888	76
540.94	65
540.992	75
541.044	80
541.097	74
541.149	70
541.201	66
541.254	77
541.306	72
541.358	67
541.41	64
541.463	75
541.515	69
541.567	63
541.62	73
541.672	67
541.724	76
541.776	69
541.829	70
541.881	83
541.933	77
541.985	73
542.038	72
542.09	77
542.142	77
542.195	77
542.247	79
542.299	74
542.351	76
542.404	61
542.456	67
542.508	78
542.56	75
542.613	71
542.665	64
542.717	78
542.77	72
542.822	64
542.874	79
542.926	89
542.979	78
543.031	86
543.083	79
543.135	85
543.188	85
543.24	81
543.292	74
543.344	79
543.397	81
543.449	86
543.501	71
543.554	89
543.606	81
543.658	78
543.71	71
543.763	80
543.815	87
543.867	81
543.919	80
543.972	94
544.024	85
544.076	82
544.128	79
544.181	97
544.233	91
544.285	85
544.337	87
544.39	95
544.442	85
544.494	90
544.547	82
544.599	87
544.651	94
544.703	82
544.755	84
544.808	93
544.86	84
544.912	93
544.965	83
545.017	94
545.069	84
545.121	91
545.174	86
545.226	98
545.278	86
545.33	81
545.383	83
545.435	98
545.487	95
545.539	98
545.591	88
545.644	101
545.696	96
545.748	85
545.8	96
545.853	81
545.905	100
545.957	92
546.009	89
546.062	91
546.114	85
546.166	94
546.218	84
546.271	98
546.323	104
546.375	100
546.427	86
546.48	95
546.532	97
546.584	96
546.636	92
546.689	97
546.741	95
546.793	95
546.845	82
546.898	103
546.95	101
547.002	101
547.054	97
547.106	109
547.159	103
547.211	106
547.263	94
547.315	99
547.368	102
547.42	102
547.472	89
547.524	99
547.577	100
547.629	102
547.681	104
547.733	104
547.785	109
547.838	107
547.89	105
547.942	122
547.994	115
548.047	112
548.099	99
548.151	121
548.203	109
548.255	112
548.308	100
548.36	113
548.412	118
548.464	114
548.517	114
548.569	114
548.621	116
548.673	114
548.725	114
548.778	117
548.83	109
548.882	111
548.934	111
548.987	124
549.039	115
549.091	127
549.143	109
549.195	118
549.248	135
549.3	120
549.352	110
549.404	125
549.456	119
549.509	129
549.561	122
549.613	124
549.665	128
549.718	121
549.77	118
549.822	123
549.874	121
549.926	129
549.979	117
550.031	122
550.083	133
550.135	132
550.187	136
550.24	133
550.292	139
550.344	135
550.396	129
550.448	139
550.501	127
550.553	138
550.605	132
550.657	146
550.709	135
550.762	147
550.814	151
550.866	149
550.918	145
550.97	154
551.023	141
551.075	145
551.127	142
551.179	151
551.231	157
551.284	178
551.336	162
551.388	174
551.44	163
551.492	170
551.545	172
551.597	179
551.649	189
551.701	199
551.753	182
551.806	204
551.858	208
551.91	231
551.962	241
552.014	254
552.067	246
552.119	277
552.171	314
552.223	362
552.275	393
552.327	476
552.38	573
552.432	795
552.484	1494
552.536	3264
552.588	6123
552.641	10662
552.693	18033
552.745	28621
552.797	26848
552.849	13401
552.901	4822
552.954	1800
553.006	980
553.058	673
553.11	509
553.162	426
553.215	367
553.267	324
553.319	296
553.371	275
553.423	268
553.475	243
553.528	221
553.58	232
553.632	217
553.684	214
553.736	194
553.788	206
553.841	200
553.893	188
553.945	180
553.997	176
554.049	194
554.102	189
554.154	172
554.206	178
554.258	191
554.31	171
554.362	178
554.414	166
554.467	172
554.519	173
554.571	174
554.623	179
554.675	179
554.727	169
554.78	165
554.832	171
554.884	166
554.936	169
554.988	176
555.04	188
555.093	176
555.145	171
555.197	159
555.249	168
555.301	169
555.353	170
555.406	168
555.458	177
555.51	172
555.562	178
555.614	159
555.666	179
555.719	160
555.771	181
555.823	178
555.875	178
555.927	192
555.979	192
556.031	173
556.084	176
556.136	184
556.188	190
556.24	177
556.292	187
556.344	191
556.396	182
556.449	175
556.501	182
556.553	177
556.605	177
556.657	185
556.709	184
556.762	199
556.814	184
556.866	203
556.918	186
556.97	197
557.022	199
557.074	194
557.127	202
557.179	208
557.231	200
557.283	201
557.335	179
557.387	209
557.439	211
557.492	197
557.544	201
557.596	204
557.648	203
557.7	204
557.752	201
557.804	201
557.856	207
557.909	200
557.961	203
558.013	198
558.065	208
558.117	210
558.169	206
558.221	219
558.273	206
558.326	209
558.378	203
558.43	218
558.482	211
558.534	203
558.586	211
558.638	206
558.691	208
558.743	214
558.795	212
558.847	211
558.899	220
558.951	217
559.003	208
559.055	220
559.108	213
559.16	219
559.212	209
559.264	227
559.316	224
559.368	225
559.42	203
559.472	225
559.525	238
559.577	223
559.629	223
559.681	241
559.733	232
559.785	225
559.837	217
559.889	241
559.941	244
559.994	229
560.046	230
560.098	246
560.15	238
560.202	223
560.254	234
560.306	238
560.358	225
560.41	232
560.463	235
560.515	239
560.567	236
560.619	241
560.671	241
560.723	243
560.775	244
560.827	248
560.879	246
560.932	243
560.984	248
561.036	247
561.088	236
561.14	261
561.192	259
561.244	251
561.296	252
561.348	269
561.4	261
561.453	257
561.505	244
561.557	264
561.609	266
561.661	265
561.713	261
561.765	263
561.817	266
561.869	280
561.921	264
561.974	278
562.026	270
562.078	275
562.13	274
562.182	290
562.234	297
562.286	280
562.338	274
562.39	278
562.442	292
562.494	280
562.547	282
562.599	294
562.651	280
562.703	303
562.755	286
562.807	290
562.859	291
562.911	288
562.963	292
563.015	302
563.067	317
563.12	293
563.172	298
563.224	306
563.276	298
563.328	309
563.38	293
563.432	310
563.484	324
563.536	317
563.588	321
563.64	326
563.692	323
563.744	328
563.797	300
563.849	337
563.901	340
563.953	363
564.005	330
564.057	337
564.109	353
564.161	348
564.213	347
564.265	342
564.317	368
564.369	385
564.421	340
564.474	362
564.526	360
564.578	365
564.63	345
564.682	351
564.734	361
564.786	371
564.838	370
564.89	340
564.942	368
564.994	354
565.046	348
565.098	359
565.15	346
565.202	362
565.255	333
565.307	333
565.359	357
565.411	345
565.463	332
565.515	350
565.567	351
565.619	371
565.671	343
565.723	341
565.775	353
565.827	348
565.879	345
565.931	361
565.983	359
566.035	365
566.087	358
566.139	359
566.192	362
566.244	364
566.296	359
566.348	373
566.4	377
566.452	370
566.504	368
566.556	382
566.608	368
566.66	368
566.712	364
566.764	386
566.816	375
566.868	385
566.92	370
566.972	380
567.024	380
567.076	390
567.128	381
567.18	379
567.232	371
567.285	397
567.337	382
567.389	402
567.441	407
567.493	393
567.545	405
567.597	406
567.649	397
567.701	399
567.753	408
567.805	397
567.857	398
567.909	418
567.961	428
568.013	411
568.065	408
568.117	419.905
568.169	419.787
568.221	430.528
568.273	430.497
568.325	428.479
568.377	426.167
568.429	407.566
568.481	433.34
568.533	456.891
568.585	425.242
568.637	433.009
568.69	431.266
568.742	409.96
568.794	441.592
568.846	436.431
568.898	452.087
568.95	440.678
569.002	421.156
569.054	442.185
569.106	446.862
569.158	451.159
569.21	437.91
569.262	437.099
569.314	446.343
569.366	457.906
569.418	476.627
569.47	457.88
569.522	458.589
569.574	443.898
569.626	455.359
569.678	475.068
569.73	460.89
569.782	473.804
569.834	482.281
569.886	476.058
569.938	481.148
569.99	479.261
570.042	483.723
570.094	477.518
570.146	494.317
570.198	481.637
570.25	483.706
570.302	486.029
570.354	500.863
570.406	509.759
570.458	517.6
570.51	508.473
570.562	503.314
570.614	513.352
570.666	513.948
570.718	510.387
570.77	522.561
570.822	522.154
570.874	540.48
570.926	540.996
570.978	545.897
571.03	546.022
571.082	554.142
571.134	564.766
571.186	560.86
571.238	551.334
571.29	568.02
571.342	579.309
571.394	569.081
571.446	559.472
571.498	582.862
571.55	592.958
571.602	600.383
571.654	604.552
571.706	609.927
571.758	613.753
571.81	619.19
571.862	625.557
571.914	632.22
571.966	634.661
572.018	645.826
572.07	646.553
572.122	655.69
572.174	669.484
572.226	666.33
572.278	679.452
572.33	681.695
572.382	681.299
572.434	704.829
572.486	713.898
572.538	730.984
572.59	715.232
572.642	712.057
572.694	732.422
572.746	742.653
572.798	770.951
572.85	774.885
572.902	785.16
572.954	795.896
573.006	817.364
573.058	813.547
573.11	807.846
573.162	802.485
573.214	823.004
573.266	845.705
573.312	833
573.364	847
573.416	898
573.469	884
573.521	901
573.573	921
573.625	960
573.677	954
573.73	953
573.782	977
573.834	978
573.886	1021
573.938	1027
573.991	1049
574.043	1041
574.095	1074
574.147	1079
574.199	1112
574.252	1090
574.304	1143
574.356	1149
574.408	1168
574.46	1199
574.513	1193
574.565	1230
574.617	1264
574.669	1269
574.721	1271
574.774	1300
574.826	1298
574.878	1319
574.93	1339
574.982	1359
575.035	1376
575.087	1379
575.139	1371
575.191	1409
575.243	1416
575.296	1437
575.348	1444
575.4	1432
575.452	1460
575.504	1511
575.556	1464
575.609	1441
575.661	1475
575.713	1495
575.765	1459
575.817	1482
575.87	1465
575.922	1487
575.974	1471
576.026	1462
576.078	1432
576.131	1467
576.183	1459
576.235	1445
576.287	1475
576.339	1436
576.391	1403
576.444	1408
576.496	1441
576.548	1400
576.6	1364
576.652	1385
576.705	1388
576.757	1366
576.809	1361
576.861	1332
576.913	1316
576.965	1304
577.018	1290
577.07	1313
577.122	1270
577.174	1247
577.226	1258
577.279	1248
577.331	1236
577.383	1223
577.435	1204
577.487	1231
577.539	1200
577.592	1180
577.644	1174
577.696	1156
577.748	1183
577.8	1150
577.852	1100
577.905	1138
577.957	1128
578.009	1120
578.061	1083
578.113	1092
578.165	1101
578.218	1074
578.27	1065
578.322	1075
578.374	1090
578.426	1027
578.478	1046
578.531	1000
578.583	1034
578.635	1056
578.687	1016
578.739	1026
578.791	1016
578.844	1008
578.896	1010
578.948	1001
579	1021
579.052	1011
579.104	1014
579.157	1015
579.209	999
579.261	1009
579.313	946
579.365	971
579.417	1008
579.47	979
579.522	980
579.574	1028
579.626	1008
579.678	991
579.73	955
579.782	1001
579.835	998
579.887	969
579.939	996
579.991	1011
580.043	1000
580.095	1006
580.148	981
580.2	1004
580.252	1021
580.304	1000
580.356	997
580.408	999
580.46	986
580.513	978
580.565	1007
580.617	991
580.669	972
580.721	1008
580.773	981
580.826	991
580.878	1007
580.93	1002
580.982	975
581.034	986
581.086	1014
581.138	1002
581.191	1022
581.243	1015
581.295	1017
581.347	1010
581.399	1015
581.451	1020
581.503	1022
581.556	999
581.608	1027
581.66	1016
581.712	1018
581.764	1025
581.816	1026
581.868	1017
581.92	1030
581.973	1040
582.025	1030
582.077	1029
582.129	1050
582.181	1040
582.233	1058
582.285	1066
582.338	1053
582.39	1051
582.442	1070
582.494	1045
582.546	1071
582.598	1027
582.65	1060
582.703	1082
582.755	1071
582.807	1043
582.859	1081
582.911	1075
582.963	1080
583.015	1088
583.067	1057
583.12	1104
583.172	1092
583.224	1075
583.276	1064
583.328	1090
583.38	1084
583.432	1098
583.484	1084
583.537	1121
583.589	1100
583.641	1105
583.693	1102
583.745	1128
583.797	1148
583.849	1123
583.901	1158
583.953	1162
584.006	1137
584.058	1147
584.11	1145
584.162	1154
584.214	1134
584.266	1156
584.318	1173
584.37	1171
584.423	1177
584.475	1173
584.527	1200
584.579	1190
584.631	1193
584.683	1185
584.735	1218
584.787	1212
584.839	1210
584.892	1244
584.944	1178
584.996	1193
585.048	1222
585.1	1225
585.152	1255
585.204	1232
585.256	1260
585.308	1223
585.361	1215
585.413	1272
585.465	1271
585.517	1273
585.569	1266
585.621	1262
585.673	1252
585.725	1236
585.777	1276
585.83	1284
585.882	1255
585.934	1273
585.986	1290
586.038	1302
586.09	1302
586.142	1317
586.194	1324
586.246	1327
586.298	1289
586.351	1283
586.403	1322
586.455	1333
586.507	1336
586.559	1329
586.611	1334
586.663	1330
586.715	1323
586.767	1334
586.819	1312
586.872	1360
586.924	1327
586.976	1334
587.028	1344
587.08	1369
587.132	1368
587.184	1377
587.236	1365
587.288	1343
587.34	1347
587.392	1349
587.445	1398
587.497	1365
587.549	1375
587.601	1395
587.653	1385
587.705	1355
587.757	1397
587.809	1346
587.861	1366
587.913	1387
587.965	1410
588.018	1352
588.07	1368
588.122	1380
588.174	1347
588.226	1401
588.278	1386
588.33	1361
588.382	1364
588.434	1389
588.486	1389
588.538	1448
588.59	1395
588.642	1388
588.695	1410
588.747	1406
588.799	1400
588.851	1393
588.903	1396
588.955	1370
589.007	1448
589.059	1438
589.111	1379
589.163	1430
589.215	1427
589.267	1447
589.319	1426
589.372	1445
589.424	1419
589.476	1433
589.528	1457
589.58	1456
589.632	1452
589.684	1447
589.736	1433
589.788	1453
589.84	1483
589.892	1439
589.944	1432
589.996	1428
590.048	1437
590.101	1421
590.153	1443
590.205	1407
590.257	1424
590.309	1436
590.361	1438
590.413	1433
590.465	1439
590.517	1441
590.569	1432
590.621	1443
590.673	1452
590.725	1388
590.777	1423
590.829	1446
590.881	1430
590.933	1440
590.986	1451
591.038	1417
591.09	1460
591.142	1442
591.194	1425
591.246	1420
591.298	1401
591.35	1414
591.402	1410
591.454	1418
591.506	1408
591.558	1401
591.61	1408
591.662	1410
591.714	1415
591.766	1416
591.818	1405
591.87	1406
591.923	1387
591.975	1386
592.027	1388
592.079	1394
592.131	1374
592.183	1387
592.235	1407
592.287	1391
592.339	1373
592.391	1399
592.443	1405
592.495	1396
592.547	1380
592.599	1396
592.651	1372
592.703	1420
592.755	1389
592.807	1363
592.859	1359
592.911	1384
592.963	1379
593.015	1374
593.068	1362
593.12	1398
593.172	1402
593.224	1381
593.276	1405
593.328	1419
593.38	1378
593.432	1365
593.484	1395
593.536	1368
593.588	1354
593.64	1384
593.692	1414
593.744	1396
593.796	1390
593.848	1421
593.9	1378
593.952	1399
594.004	1392
594.056	1409
594.108	1399
594.16	1407
594.212	1414
594.264	1411
594.316	1395
594.368	1429
594.42	1427
594.472	1409
594.524	1409
594.576	1426
594.628	1422
594.68	1457
594.732	1427
594.784	1448
594.837	1427
594.889	1415
594.941	1448
594.993	1466
595.045	1445
595.097	1454
595.149	1475
595.201	1456
595.253	1471
595.305	1453
595.357	1478
595.409	1470
595.461	1456
595.513	1469
595.565	1471
595.617	1491
595.669	1489
595.721	1472
595.773	1482
595.825	1517
595.877	1501
595.929	1522
595.981	1480
596.033	1517
596.085	1481
596.137	1525
596.189	1547
596.241	1547
596.293	1521
596.345	1505
596.397	1501
596.449	1528
596.501	1531
596.553	1553
596.605	1569
596.657	1569
596.709	1580
596.761	1583
596.813	1565
596.865	1585
596.917	1578
596.969	1548
597.021	1571
597.073	1551
597.125	1564
597.177	1540
597.229	1557
597.281	1515
597.333	1527
597.385	1564
597.437	1559
597.489	1568
597.541	1552
597.593	1568
597.645	1579
597.697	1565
597.749	1560
597.801	1558
597.853	1553
597.905	1553
597.957	1555
598.009	1547
598.061	1558
598.113	1588
598.165	1584
598.217	1540
598.269	1565
598.321	1561
598.373	1579
598.425	1576
598.477	1562
598.529	1561
598.581	1571
598.633	1556
598.685	1575
598.737	1593
598.789	1564
598.841	1545
598.893	1598
598.945	1560
598.997	1579
599.049	1561
599.101	1606
599.153	1571
599.205	1597
599.257	1606
599.309	1598
599.361	1576
599.413	1567
599.465	1553
599.517	1612
599.569	1614
599.62	1615
599.672	1629
599.724	1606
599.776	1568
599.828	1606
599.88	1622
599.932	1582
599.984	1573
600.036	1597
600.088	1606
600.14	1597
600.192	1631
600.244	1610
600.296	1614
600.348	1612
600.4	1578
600.452	1589
600.504	1604
600.556	1591
600.608	1590
600.66	1603
600.712	1611
600.764	1583
600.816	1566
600.868	1618
600.92	1581
600.972	1622
601.024	1621
601.076	1626
601.128	1578
601.18	1618
601.232	1605
601.284	1623
601.335	1609
601.387	1590
601.439	1595
601.491	1628
601.543	1605
601.595	1616
601.647	1607
601.699	1622
601.751	1591
601.803	1598
601.855	1633
601.907	1611
601.959	1637
602.011	1579
602.063	1600
602.115	1617
602.167	1596
602.219	1645
602.271	1674
602.323	1610
602.375	1674
602.427	1608
602.478	1633
602.53	1643
602.582	1624
602.634	1612
602.686	1613
602.738	1600
602.79	1648
602.842	1620
602.894	1655
602.946	1641
602.998	1653
603.05	1644
603.102	1643
603.154	1608
603.206	1625
603.258	1663
603.31	1652
603.362	1656
603.413	1656
603.465	1629
603.517	1668
603.569	1628
603.621	1677
603.673	1662
603.725	1666
603.777	1626
603.829	1647
603.881	1730
603.933	1666
603.985	1638
604.037	1638
604.089	1684
604.141	1666
604.193	1637
604.244	1670
604.296	1671
604.348	1726
604.4	1678
604.452	1662
604.504	1694
604.556	1654
604.608	1656
604.66	1704
604.712	1677
604.764	1690
604.816	1689
604.868	1687
604.92	1671
604.971	1702
605.023	1691
605.075	1666
605.127	1668
605.179	1684
605.231	1691
605.283	1670
605.335	1728
605.387	1686
605.439	1648
605.491	1649
605.543	1690
605.594	1666
605.646	1669
605.698	1672
605.75	1672
605.802	1679
605.854	1676
605.906	1697
605.958	1652
606.01	1688
606.062	1670
606.114	1682
606.166	1688
606.217	1637
606.269	1656
606.321	1680
606.373	1682
606.425	1683
606.477	1683
606.529	1679
606.581	1679
606.633	1692
606.685	1651
606.737	1675
606.789	1686
606.84	1692
606.892	1708
606.944	1652
606.996	1666
607.048	1711
607.1	1668
607.152	1691
607.204	1679
607.256	1666
607.308	1733
607.359	1682
607.411	1722
607.463	1689
607.515	1710
607.567	1715
607.619	1732
607.671	1693
607.723	1716
607.775	1706
607.827	1653
607.878	1720
607.93	1714
607.982	1713
608.034	1741
608.086	1721
608.138	1698
608.19	1730
608.242	1715
608.294	1719
608.345	1743
608.397	1748
608.449	1739
608.501	1744
608.553	1719
608.605	1740
608.657	1744
608.709	1789
608.761	1735
608.812	1725
608.864	1753
608.916	1762
608.968	1737
609.02	1754
609.072	1730
609.124	1731
609.176	1720
609.228	1761
609.279	1759
609.331	1761
609.383	1753
609.435	1779
609.487	1754
609.539	1728
609.591	1817
609.643	1787
609.694	1768
609.746	1793
609.798	1824
609.85	1812
609.902	1792
609.954	1784
610.006	1812
610.058	1797
610.109	1807
610.161	1803
610.213	1766
610.265	1838
610.317	1791
610.369	1794
610.421	1795
610.473	1811
610.524	1774
610.576	1856
610.628	1807
610.68	1816
610.732	1801
610.784	1824
610.836	1833
610.887	1809
610.939	1819
610.991	1821
611.043	1850
611.095	1831
611.147	1822
611.199	1830
611.25	1828
611.302	1809
611.354	1835
611.406	1829
611.458	1835
611.51	1830
611.562	1875
611.614	1854
611.665	1852
611.717	1851
611.769	1863
611.821	1881
611.873	1856
611.925	1866
611.977	1863
612.028	1852
612.08	1876
612.132	1882
612.184	1853
612.236	1859
612.288	1860
612.339	1859
612.391	1878
612.443	1864
612.495	1854
612.547	1923
612.599	1895
612.651	1876
612.702	1898
612.754	1879
612.806	1909
612.858	1855
612.91	1899
612.962	1900
613.013	1924
613.065	1925
613.117	1880
613.169	1912
613.221	1910
613.273	1934
613.325	1919
613.376	1936
613.428	1944
613.48	1921
613.532	1958
613.584	1945
613.635	1929
613.687	1972
613.739	1952
613.791	1969
613.843	1918
613.895	1946
613.947	1923
613.998	1944
614.05	1964
614.102	1962
614.154	1972
614.206	1993
614.258	1996
614.309	1973
614.361	2008
614.413	1957
614.465	2024
614.517	1995
614.568	1983
614.62	2016
614.672	1991
614.724	2009
614.776	2021
614.828	2053
614.879	2038
614.931	2043
614.983	2032
615.035	2036
615.087	2043
615.139	2006
615.19	2042
615.242	2064
615.294	2025
615.346	2051
615.398	2036
615.449	2040
615.501	2027
615.553	2038
615.605	2096
615.657	2056
615.709	2048
615.76	2058
615.812	2096
615.864	2032
615.916	2086
615.968	2099
616.019	2087.46
616.071	2100.03
616.123	2067.53
616.175	2061.42
616.227	2060.66
616.278	2068.53
616.33	2085.71
616.382	2108.68
616.434	2095.55
616.486	2105.01
616.537	2072.84
616.589	2147.78
616.641	2104.23
616.693	2094.3
616.745	2118.62
616.797	2128.98
616.848	2122.44
616.9	2118.82
616.952	2133.04
617.004	2111.13
617.056	2128.67
617.107	2109.75
617.159	2132.38
617.211	2141.02
617.263	2134.85
617.315	2168.67
617.366	2133.1
617.418	2142.76
617.47	2142.32
617.522	2159.77
617.573	2142.56
617.625	2171.86
617.677	2134.08
617.729	2148.24
617.781	2157
617.832	2175.45
617.884	2160.25
617.936	2181.68
617.988	2154.81
618.04	2152.6
618.091	2153.46
618.143	2146.43
618.195	2183.22
618.247	2137.62
618.299	2194.55
618.35	2179.59
618.402	2157.23
618.454	2172.67
618.506	2190.57
618.557	2183.82
618.609	2206.19
618.661	2186.97
618.713	2183.74
618.765	2206.57
618.816	2206.76
618.868	2207.94
618.92	2180.17
618.972	2194.46
619.023	2217.73
619.075	2194.81
619.127	2201.46
619.179	2192.92
619.231	2207.14
619.282	2222.19
619.334	2206.44
619.386	2213.82
619.438	2208.36
619.49	2231.56
619.541	2219.86
619.593	2212.98
619.645	2215.43
619.697	2229.05
619.748	2229.29
619.8	2241.22
619.852	2233.61
619.904	2236.43
619.955	2219.76
620.007	2220.03
620.059	2230.3
620.111	2226.49
620.162	2233.41
620.214	2246.08
620.266	2252.39
620.318	2252.92
620.37	2260.83
620.421	2267.25
620.473	2253.31
620.525	2236.53
620.577	2247.05
620.628	2254.25
620.68	2278.55
620.732	2243.19
620.784	2233.69
620.835	2236.81
620.887	2265.79
620.939	2291.96
620.991	2288.75
621.042	2243.31
621.094	2210.94
621.146	2234.53
621.198	2274.03
621.249	2256.34
621.269	2237
621.321	2263
621.373	2291
621.425	2267
621.477	2253
621.529	2242
621.581	2234
621.633	2246
621.685	2241
621.737	2281
621.789	2239
621.841	2317
621.893	2274
621.945	2253
621.997	2258
622.049	2312
622.101	2310
622.153	2291
622.205	2256
622.257	2291
622.309	2274
622.361	2264
622.413	2235
622.465	2265
622.517	2208
622.569	2275
622.621	2267
622.673	2300
622.725	2284
622.776	2317
622.828	2304
622.88	2271
622.932	2264
622.984	2277
623.036	2315
623.088	2342
623.14	2323
623.192	2295
623.244	2303
623.296	2294
623.348	2324
623.4	2296
623.452	2308
623.504	2296
623.556	2281
623.608	2308
623.66	2317
623.712	2327
623.764	2268
623.816	2341
623.868	2274
623.92	2338
623.972	2302
624.024	2305
624.076	2313
624.128	2349
624.18	2314
624.232	2291
624.284	2318
624.336	2361
624.388	2315
624.44	2319
624.492	2347
624.544	2366
624.596	2308
624.648	2359
624.699	2324
624.751	2329
624.803	2393
624.855	2360
624.907	2337
624.959	2339
625.011	2395
625.063	2345
625.115	2332
625.167	2383
625.219	2388
625.271	2337
625.323	2371
625.375	2411
625.427	2359
625.479	2396
625.531	2396
625.583	2415
625.635	2363
625.687	2395
625.739	2372
625.791	2404
625.843	2380
625.895	2386
625.946	2408
625.998	2403
626.05	2387
626.102	2397
626.154	2476
626.206	2442
626.258	2455
626.31	2414
626.362	2422
626.414	2433
626.466	2408
626.518	2468
626.57	2444
626.622	2435
626.674	2423
626.726	2462
626.778	2425
626.83	2471
626.882	2444
626.934	2437
626.985	2477
627.037	2431
627.089	2445
627.141	2414
627.193	2421
627.245	2467
627.297	2480
627.349	2445
627.401	2441
627.453	2456
627.505	2447
627.557	2520
627.609	2471
627.661	2505
627.713	2513
627.765	2493
627.817	2514
627.868	2495
627.92	2485
627.972	2476
628.024	2516
628.076	2562
628.128	2536
628.18	2522
628.232	2489
628.284	2545
628.336	2518
628.388	2509
628.44	2518
628.492	2524
628.544	2555
628.596	2497
628.647	2571
628.699	2520
628.751	2559
628.803	2567
628.855	2586
628.907	2560
628.959	2574
629.011	2543
629.063	2589
629.115	2617
629.167	2545
629.219	2564
629.271	2540
629.322	2574
629.374	2520
629.426	2566
629.478	2570
629.53	2584
629.582	2563
629.634	2594
629.686	2626
629.738	2539
629.79	2578
629.842	2592
629.894	2589
629.945	2615
629.997	2607
630.049	2598
630.101	2598
630.153	2615
630.205	2660
630.257	2637
630.309	2646
630.361	2621
630.413	2624
630.465	2637
630.517	2699
630.568	2655
630.62	2663
630.672	2653
630.724	2725
630.776	2684
630.828	2660
630.88	2636
630.932	2634
630.984	2663
631.036	2706
631.088	2665
631.14	2724
631.191	2704
631.243	2714
631.295	2689
631.347	2713
631.399	2690
631.451	2687
631.503	2761
631.555	2664
631.607	2759
631.659	2739
631.71	2746
631.762	2720
631.814	2765
631.866	2754
631.918	2775
631.97	2779
632.022	2743
632.074	2763
632.126	2741
632.178	2775
632.229	2768
632.281	2804
632.333	2768
632.385	2783
632.437	2791
632.489	2764
632.541	2837
632.593	2819
632.645	2825
632.696	2828
632.748	2845
632.8	2810
632.852	2849
632.904	2832
632.956	2834
633.008	2809
633.06	2872
633.112	2893
633.164	2873
633.215	2864
633.267	2901
633.319	2856
633.371	2893
633.423	2892
633.475	2931
633.527	2884
633.579	2898
633.63	2906
633.682	2884
633.734	2947
633.786	2894
633.838	2960
633.89	2943
633.942	2939
633.994	2944
634.046	2932
634.097	2942
634.149	2999
634.201	3014
634.253	2980
634.305	3041
634.357	3016
634.409	2993
634.461	3017
634.512	3016
634.564	3060
634.616	3000
634.668	3068
634.72	3044
634.772	3077
634.824	3066
634.876	3057
634.927	3157
634.979	3109
635.031	3137
635.083	3116
635.135	3184
635.187	3202
635.239	3175
635.291	3160
635.342	3253
635.394	3241
635.446	3271
635.498	3256
635.55	3288
635.602	3274
635.654	3290
635.705	3300
635.757	3376
635.809	3344
635.861	3400
635.913	3385
635.965	3404
636.017	3502
636.068	3483
636.12	3516
636.172	3525
636.224	3547
636.276	3507
636.328	3576
636.38	3659
636.431	3667
636.483	3672
636.535	3731
636.587	3754
636.639	3814
636.691	3816
636.743	3791
636.794	3780
636.846	3848
636.898	3908
636.95	3908
637.002	3953
637.054	3996
637.106	4002
637.157	4081
637.209	4074
637.261	4115
637.313	4113
637.365	4139
637.417	4152
637.469	4196
637.52	4156
637.572	4153
637.624	4160
637.676	4210
637.728	4269
637.78	4245
637.831	4277
637.883	4226
637.935	4334
637.987	4244
638.039	4309
638.091	4317
638.143	4321
638.194	4322
638.246	4310
638.298	4309
638.35	4324
638.402	4321
638.454	4247
638.505	4235
638.557	4260
638.609	4289
638.661	4329
638.713	4197
638.765	4181
638.816	4283
638.868	4204
638.92	4163
638.972	4237
639.024	4138
639.076	4127
639.127	4125
639.179	4143
639.231	4071
639.283	4096
639.335	4059
639.387	4012
639.438	4077
639.49	3994
639.542	3989
639.594	3943
639.646	3890
639.698	3927
639.749	3909
639.801	3897
639.853	3892
639.905	3871
639.957	3852
640.008	3815
640.06	3883
640.112	3801
640.164	3798
640.216	3756
640.268	3789
640.319	3830
640.371	3771
640.423	3757
640.475	3790
640.527	3696
640.578	3755
640.63	3706
640.682	3720
640.734	3679
640.786	3715
640.838	3730
640.889	3682
640.941	3719
640.993	3655
641.045	3650
641.097	3674
641.148	3710
641.2	3715
641.252	3651
641.304	3605
641.356	3694
641.408	3656
641.459	3615
641.511	3666
641.563	3659
641.615	3634
641.667	3665
641.718	3669
641.77	3652
641.822	3661
641.874	3633
641.926	3621
641.977	3602
642.029	3659
642.081	3639
642.133	3616
642.185	3643
642.236	3667
642.288	3619
642.34	3676
642.392	3565
642.444	3713
642.495	3657
642.547	3646
642.599	3669
642.651	3628
642.703	3650
642.754	3681
642.806	3696
642.858	3633
642.91	3659
642.962	3636
643.013	3667
643.065	3639
643.117	3678
643.169	3640
643.221	3696
643.272	3696
643.324	3704
643.376	3717
643.428	3653
643.479	3716
643.531	3714
643.583	3648
643.635	3704
643.687	3736
643.738	3654
643.79	3696
643.842	3668
643.894	3665
643.946	3665
643.997	3712
644.049	3665
644.101	3762
644.153	3744
644.205	3747
644.256	3779
644.308	3711
644.36	3693
644.412	3750
644.463	3748
644.515	3733
644.567	3757
644.619	3740
644.671	3744
644.722	3746
644.774	3813
644.826	3757
644.878	3769
644.929	3764
644.981	3755
645.033	3728
645.085	3790
645.136	3793
645.188	3814
645.24	3776
645.292	3793
645.344	3800
645.395	3801
645.447	3775
645.499	3780
645.551	3741
645.602	3817
645.654	3859
645.706	3806
645.758	3817
645.81	3827
645.861	3805
645.913	3815
645.965	3779
646.017	3849
646.068	3847
646.12	3790
646.172	3838
646.224	3821
646.275	3848
646.327	3810
646.379	3883
646.431	3859
646.482	3809
646.534	3862
646.586	3850
646.638	3875
646.689	3882
646.741	3836
646.793	3894
646.845	3900
646.896	3911
646.948	3911
647	3928
647.052	3896
647.104	3893
647.155	3889
647.207	3895
647.259	3869
647.31	3886
647.362	3909
647.414	3975
647.466	3951
647.518	3929
647.569	3926
647.621	3889
647.673	3954
647.724	3931
647.776	3954
647.828	3887
647.88	3942
647.931	3941
647.983	3989
648.035	3920
648.087	3991
648.138	4006
648.19	4004
648.242	4008
648.294	4009
648.345	3962
648.397	3977
648.449	4020
648.501	3966
648.552	3979
648.604	4018
648.656	4078
648.708	4004
648.759	4018
648.811	3962
648.863	4028
648.915	4038
648.966	4071
649.018	4035
649.07	4012
649.121	4074
649.173	4042
649.225	4101
649.277	4081
649.328	4054
649.38	4027
649.432	4071
649.484	4106
649.535	4099
649.587	4106
649.639	4104
649.69	4077
649.742	4127
649.794	4177
649.846	4156
649.897	4140
649.949	4157
650.001	4146
650.053	4123
650.104	4173
650.156	4154
650.208	4242
650.259	4152
650.311	4147
650.363	4264
650.415	4140
650.466	4200
650.518	4209
650.57	4229
650.621	4238
650.673	4183
650.725	4167
650.777	4257
650.828	4276
650.88	4221
650.932	4266
650.984	4290
651.035	4243
651.087	4244
651.139	4248
651.19	4236
651.242	4303
651.294	4294
651.345	4293
651.397	4317
651.449	4353
651.501	4355
651.552	4321
651.604	4301
651.656	4312
651.707	4338
651.759	4366
651.811	4349
651.863	4404
651.914	4344
651.966	4395
652.018	4355
652.069	4401
652.121	4396
652.173	4462
652.224	4353
652.276	4379
652.328	4415
652.38	4352
652.431	4381
652.483	4403
652.535	4426
652.586	4433
652.638	4441
652.69	4453
652.741	4441
652.793	4431
652.845	4497
652.897	4465
652.948	4434
653	4476
653.052	4482
653.103	4468
653.155	4521
653.207	4513
653.258	4520
653.31	4524
653.362	4567
653.413	4475
653.465	4521
653.517	4507
653.568	4550
653.62	4622
653.672	4632
653.724	4534
653.775	4619
653.827	4589
653.879	4640
653.93	4575
653.982	4645
654.034	4714
654.085	4613
654.137	4597
654.189	4654
654.24	4679
654.292	4649
654.344	4667
654.395	4646
654.447	4684
654.499	4686
654.55	4697
654.602	4715
654.654	4706
654.705	4717
654.757	4743
654.809	4772
654.86	4737
654.912	4769
654.964	4795
655.016	4861
655.067	4834
655.119	4820
655.17	4814
655.222	4886
655.274	4815
655.326	4819
655.377	4870
655.429	4891
655.481	4857
655.532	4920
655.584	4884
655.635	4935
655.687	4927
655.739	4879
655.79	4846
655.842	4963
655.894	5000
655.945	4956
655.997	5030
656.049	4958
656.1	5009
656.152	4998
656.204	4948
656.255	5050
656.307	5039
656.359	4998
656.41	5042
656.462	5082
656.514	5170
656.565	5121
656.617	5154
656.669	5118
656.72	5105
656.772	5149
656.824	5133
656.875	5138
656.927	5205
656.979	5175
657.03	5138
657.082	5238
657.134	5190
657.185	5251
657.237	5218
657.288	5195
657.34	5192
657.392	5315
657.443	5211
657.495	5283
657.547	5332
657.598	5295
657.65	5301
657.702	5292
657.753	5320
657.805	5258
657.857	5316
657.908	5344
657.96	5317
658.011	5326
658.063	5334
658.115	5349
658.166	5300
658.218	5266
658.27	5330
658.321	5375
658.373	5403
658.425	5364
658.476	5437
658.528	5346
658.579	5439
658.631	5429
658.683	5450
658.734	5352
658.786	5420
658.838	5390
658.889	5423
658.941	5381
658.992	5424
659.044	5427
659.096	5362
659.147	5466
659.199	5432
659.251	5376
659.302	5407
659.354	5415
659.406	5532
659.457	5408
659.509	5404
659.56	5377
659.612	5442
659.664	5442
659.715	5477
659.767	5394
659.818	5505
659.87	5432
659.922	5437
659.973	5459
660.025	5373
660.077	5405
660.128	5424
660.18	5429
660.231	5513
660.283	5466
660.335	5438
660.386	5470
660.438	5443
660.49	5482
660.541	5484
660.593	5404
660.644	5478
660.696	5475
660.748	5477
660.799	5462
660.851	5455
660.902	5477
660.954	5390
661.006	5412
661.057	5482
661.109	5480
661.16	5422
661.212	5518
661.264	5474
661.315	5588
661.367	5443
661.418	5518
661.47	5381
661.522	5435
661.573	5416
661.625	5403
661.676	5377
661.728	5412
661.78	5468
661.831	5457
661.883	5430
661.934	5455
661.986	5401
662.038	5459
662.089	5398
662.141	5466
662.192	5445
662.244	5563
662.296	5473
662.347	5482
662.399	5479
662.45	5417
662.502	5448
662.554	5429
662.605	5473
662.657	5545
662.708	5465
662.76	5524
662.811	5483
662.863	5435
662.915	5419
662.966	5438
663.018	5410
663.069	5359
663.121	5461
663.173	5433
663.224	5468
663.276	5490
663.327	5463
663.379	5460
663.43	5466
663.482	5537
663.534	5435
663.585	5451
663.637	5468
663.688	5389
663.74	5498.1
663.792	5504.59
663.843	5410.71
663.895	5469.96
663.946	5465.11
663.998	5477.73
664.049	5485.17
664.101	5510.12
664.153	5435.35
664.204	5451.28
664.256	5510.6
664.307	5450.65
664.359	5490.66
664.41	5410.29
664.462	5504.71
664.513	5503.41
664.565	5465.69
664.617	5470.93
664.668	5488.1
664.72	5526.37
664.771	5529.9
664.823	5466.85
664.874	5472.74
664.926	5484.11
664.978	5480.18
665.029	5469.44
665.081	5497.11
665.132	5458.58
665.184	5529.77
665.235	5479.15
665.287	5438.79
665.339	5455.52
665.39	5475.69
665.442	5475.94
665.493	5429.01
665.545	5493.24
665.596	5484.55
665.648	5460.13
665.699	5535.2
665.751	5508.76
665.802	5484.17
665.854	5500
665.906	5464.14
665.957	5491.31
666.009	5481.38
666.06	5471.58
666.112	5478.04
666.163	5484.04
666.215	5452.83
666.266	5467.02
666.318	5454.46
666.37	5482.87
666.421	5452.76
666.473	5454.74
666.524	5463.1
666.576	5442.53
666.627	5434.08
666.679	5480.83
666.73	5412.36
666.782	5480.63
666.833	5482.39
666.885	5463.99
666.937	5476.15
666.988	5485.02
667.04	5474.8
667.091	5472.92
667.143	5471.01
667.194	5492.65
667.246	5457.34
667.297	5481.04
667.349	5445.36
667.4	5436.42
667.452	5478.43
667.503	5448.36
667.555	5448.96
667.607	5469.89
667.658	5499.02
667.71	5471.98
667.761	5498.55
667.813	5508.2
667.864	5476.3
667.916	5466.59
667.967	5485.27
668.019	5480.84
668.07	5436.27
668.122	5470.55
668.173	5433.67
668.225	5452.87
668.276	5477.3
668.328	5445.9
668.379	5491.8
668.431	5416.43
668.482	5455.03
668.534	5493.22
668.586	5403.94
668.637	5447.54
668.689	5476.61
668.74	5449.83
668.792	5458.9
668.843	5415.11
668.895	5415.24
668.935	5491
668.987	5476
669.038	5457
669.09	5438
669.142	5517
669.194	5425
669.245	5455
669.297	5502
669.349	5486
669.401	5505
669.453	5523
669.504	5493
669.556	5513
669.608	5524
669.66	5402
669.711	5460
669.763	5476
669.815	5444
669.867	5525
669.918	5440
669.97	5422
670.022	5470
670.074	5511
670.125	5444
670.177	5534
670.229	5491
670.281	5501
670.332	5428
670.384	5439
670.436	5484
670.488	5386
670.539	5481
670.591	5453
670.643	5512
670.695	5467
670.747	5480
670.798	5461
670.85	5441
670.902	5480
670.953	5463
671.005	5468
671.057	5365
671.109	5511
671.161	5443
671.212	5480
671.264	5530
671.316	5501
671.367	5503
671.419	5521
671.471	5467
671.523	5475
671.575	5553
671.626	5467
671.678	5478
671.73	5482
671.781	5437
671.833	5483
671.885	5533
671.937	5466
671.988	5510
672.04	5542
672.092	5484
672.144	5518
672.195	5519
672.247	5491
672.299	5497
672.351	5629
672.402	5578
672.454	5469
672.506	5535
672.558	5504
672.609	5606
672.661	5483
672.713	5566
672.765	5552
672.816	5552
672.868	5559
672.92	5545
672.971	5544
673.023	5576
673.075	5628
673.127	5612
673.178	5542
673.23	5593
673.282	5554
673.334	5557
673.385	5557
673.437	5675
673.489	5633
673.54	5572
673.592	5690
673.644	5590
673.696	5619
673.747	5601
673.799	5622
673.851	5631
673.903	5650
673.954	5626
674.006	5695
674.058	5692
674.109	5658
674.161	5659
674.213	5643
674.265	5738
674.316	5693
674.368	5671
674.42	5713
674.471	5743
674.523	5760
674.575	5778
674.627	5713
674.678	5784
674.73	5732
674.782	5764
674.833	5792
674.885	5799
674.937	5718
674.989	5720
675.04	5829
675.092	5781
675.144	5714
675.195	5790
675.247	5812
675.299	5807
675.351	5817
675.402	5821
675.454	5855
675.506	5805
675.557	5773
675.609	5795
675.661	5807
675.713	5729
675.764	5788
675.816	5810
675.868	5852
675.919	5801
675.971	5848
676.023	5863
676.074	5756
676.126	5826
676.178	5847
676.23	5774
676.281	5851
676.333	5872
676.385	5955
676.436	5861
676.488	5906
676.54	5777
676.591	5890
676.643	5815
676.695	5890
676.747	5910
676.798	5832
676.85	5862
676.902	5790
676.953	5862
677.005	5961
677.057	5876
677.108	5853
677.16	5824
677.212	5967
677.263	5887
677.315	5847
677.367	5892
677.419	5921
677.47	5896
677.522	5933
677.574	5938
677.625	5879
677.677	5813
677.729	5867
677.78	5857
677.832	5912
677.884	5879
677.935	5925
677.987	5858
678.039	5889
678.091	5901
678.142	5862
678.194	5964
678.246	5869
678.297	5884
678.349	5888
678.401	5864
678.452	5904
678.504	5935
678.556	5877
678.607	5893
678.659	5880
678.711	5894
678.762	5907
678.814	5899
678.866	5892
678.917	5965
678.969	5885
679.021	5904
679.072	5889
679.124	5885
679.176	5859
679.227	5891
679.279	5869
679.331	5926
679.382	5915
679.434	5893
679.486	5890
679.537	5905
679.589	5868
679.641	5908
679.692	5887
679.744	5865
679.796	5869
679.847	5821
679.899	5869
679.951	5981
680.003	5973
680.054	5897
680.106	5949
680.157	5937
680.209	5949
680.261	5929
680.312	5824
680.364	5941
680.416	5960
680.467	5908
680.519	5898
680.571	5931
680.622	5938
680.674	5932
680.726	5982
680.777	5985
680.829	5940
680.881	5986
680.932	5933
680.984	5988
681.036	6003
681.087	5946
681.139	6014
681.191	6036
681.242	6034
681.294	5966
681.346	5992
681.397	5980
681.449	6056
681.501	5995
681.552	6090
681.604	6067
681.656	6041
681.707	5977
681.759	6011
681.81	6028
681.862	6063
681.914	5989
681.965	6053
682.017	6050
682.069	6020
682.12	6076
682.172	6027
682.224	6048
682.275	6006
682.327	6073
682.379	6073
682.43	6101
682.482	6052
682.533	6067
682.585	6135
682.637	6090
682.688	6013
682.74	6034
682.792	6076
682.843	6098
682.895	6061
682.947	6026
682.998	6049
683.05	6033
683.102	6058
683.153	6149
683.205	6065
683.256	6058
683.308	6037
683.36	6083
683.411	6136
683.463	6137
683.515	6044
683.566	6111
683.618	6137
683.669	6070
683.721	6074
683.773	6051
683.824	6007
683.876	5995
683.928	6069
683.979	6125
684.031	6035
684.082	6055
684.134	6013
684.186	6110
684.237	6037
684.289	6083
684.341	6103
684.392	6038
684.444	6079
684.495	6081
684.547	6076
684.599	6064
684.65	5999
684.702	6028
684.754	6040
684.805	6045
684.857	6111
684.908	6068
684.96	5994
685.012	6030
685.063	5980
685.115	6045
685.166	6055
685.218	5974
685.27	5990
685.321	6068
685.373	6016
685.424	5953
685.476	5995
685.528	6023
685.579	6040
685.631	5996
685.683	5975
685.734	5965
685.786	6019
685.837	5956
685.889	5986
685.941	5946
685.992	5899
686.044	5986
686.095	5953
686.147	5979
686.199	5925
686.25	5987
686.302	5996
686.353	5971
686.405	5977
686.457	5960
686.508	5933
686.56	5960
686.611	5915
686.663	5905
686.715	5942
686.766	5907
686.818	5905
686.869	5909
686.921	5914
686.973	5940
687.024	5906
687.076	5876
687.127	5882
687.179	5938
687.231	5850
687.282	5900
687.334	5896
687.385	5923
687.437	5952
687.489	5922
687.54	5864
687.592	5846
687.643	5955
687.695	5935
687.747	5906
687.798	5929
687.85	5882
687.901	5917
687.953	5849
688.004	5862
688.056	5882
688.108	5945
688.159	5868
688.211	5893
688.262	5929
688.314	5957
688.366	5956
688.417	5935
688.469	5935
688.52	5935
688.572	5901
688.623	5858
688.675	5931
688.727	5984
688.778	5945
688.83	5910
688.881	5883
688.933	5908
688.984	5926
689.036	5907
689.088	5853
689.139	5878
689.191	5940
689.242	5949
689.294	5863
689.346	5910
689.397	5885
689.449	5834
689.5	5854
689.552	5870
689.603	5818
689.655	5890
689.706	5862
689.758	5860
689.81	5857
689.861	5891
689.913	5884
689.964	5931
690.016	5833
690.067	5905
690.119	5820
690.171	5828
690.222	5870
690.274	5871
690.325	5877
690.377	5800
690.428	5891
690.48	5858
690.531	5840
690.583	5857
690.635	5926
690.686	5836
690.738	5802
690.789	5778
690.841	5804
690.892	5792
690.944	5808
690.996	5852
691.047	5797
691.099	5810
691.15	5870
691.202	5766
691.253	5748
691.305	5813
691.356	5806
691.408	5747
691.459	5773
691.511	5845
691.563	5775
691.614	5713
691.666	5812
691.717	5779
691.769	5766
691.82	5783
691.872	5746
691.923	5718
691.975	5758
692.026	5714
692.078	5761
692.13	5728
692.181	5756
692.233	5730
692.284	5721
692.336	5777
692.387	5752
692.439	5737
692.49	5722
692.542	5697
692.593	5720
692.645	5704
692.697	5689
692.748	5677
692.8	5682
692.851	5654
692.903	5627
692.954	5669
693.006	5698
693.057	5652
693.109	5643
693.16	5732
693.212	5714
693.263	5694
693.315	5651
693.366	5672
693.418	5651
693.47	5714
693.521	5638
693.573	5624
693.624	5652
693.676	5682
693.727	5647
693.779	5732
693.83	5659
693.882	5624
693.933	5658
693.985	5669
694.036	5665
694.088	5642
694.139	5598
694.191	5641
694.242	5593
694.294	5659
694.345	5606
694.397	5655
694.448	5595
694.5	5640
694.552	5654
694.603	5679
694.655	5617
694.706	5684
694.758	5605
694.809	5668
694.861	5619
694.912	5634
694.964	5586
695.015	5601
695.067	5644
695.118	5583
695.17	5602
695.221	5658
695.273	5573
695.324	5674
695.376	5620
695.427	5504
695.479	5608
695.53	5588
695.582	5610
695.633	5637
695.685	5586
695.736	5570
695.788	5538
695.839	5559
695.891	5578
695.942	5631
695.994	5590
696.045	5566
696.097	5537
696.148	5605
696.2	5550
696.251	5541
696.303	5590
696.354	5532
696.406	5561
696.457	5544
696.509	5511
696.56	5556
696.612	5547
696.663	5462
696.715	5508
696.766	5550
696.818	5526
696.869	5529
696.921	5528
696.972	5589
697.024	5467
697.075	5587
697.127	5484
697.178	5507
697.23	5521
697.281	5530
697.333	5479
697.384	5506
697.436	5492
697.487	5485
697.539	5424
697.59	5445
697.642	5467
697.693	5408
697.745	5422
697.796	5400
697.847	5407
697.899	5517
697.95	5412
698.002	5422
698.053	5412
698.105	5374
698.156	5373
698.208	5426
698.259	5405
698.311	5418
698.362	5441
698.414	5390
698.465	5399
698.517	5412
698.568	5404
698.62	5401
698.671	5414
698.723	5376
698.774	5335
698.826	5361
698.877	5367
698.928	5383
698.98	5379
699.031	5352
699.083	5377
699.134	5324
699.186	5328
699.237	5319
699.289	5277
699.34	5243
699.392	5375
699.443	5264
699.495	5274
699.546	5302
699.598	5285
699.649	5285
699.7	5297
699.752	5316
699.803	5305
699.855	5309
699.906	5335
699.958	5303
700.009	5257
700.061	5281
700.112	5273
700.164	5292
700.215	5265
700.266	5315
700.318	5301
700.369	5310
700.421	5242
700.472	5263
700.524	5290
700.575	5323
700.627	5242
700.678	5208
700.73	5336
700.781	5303
700.832	5320
700.884	5216
700.935	5168
700.987	5268
701.038	5340
701.09	5259
701.141	5276
701.193	5255
701.244	5287
701.295	5304
701.347	5305
701.398	5257
701.45	5333
701.501	5318
701.553	5248
701.604	5257
701.656	5312
701.707	5269
701.758	5217
701.81	5284
701.861	5337
701.913	5354
701.964	5295
702.016	5287
702.067	5300
702.119	5272
702.17	5287
702.221	5265
702.273	5310
702.324	5224
702.376	5312
702.427	5256
702.479	5310
702.53	5273
702.581	5296
702.633	5278
702.684	5280
702.736	5290
702.787	5321
702.839	5278
702.89	5269
702.941	5325
702.993	5236
703.044	5288
703.096	5278
703.147	5275
703.199	5291
703.25	5262
703.301	5175
703.353	5268
703.404	5244
703.456	5269
703.507	5216
703.558	5238
703.61	5301
703.661	5248
703.713	5260
703.764	5270
703.816	5227
703.867	5308
703.918	5238
703.97	5247
704.021	5209
704.073	5221
704.124	5264
704.175	5283
704.227	5194
704.278	5242
704.33	5252
704.381	5227
704.432	5270
704.484	5265
704.535	5259
704.587	5230
704.638	5226
704.69	5247
704.741	5206
704.792	5289
704.844	5186
704.895	5158
704.947	5180
704.998	5128
705.049	5167
705.101	5177
705.152	5216
705.204	5218
705.255	5156
705.306	5180
705.358	5181
705.409	5144
705.461	5155
705.512	5128
705.563	5112
705.615	5137
705.666	5122
705.718	5176
705.769	5116
705.82	5141
705.872	5088
705.923	5038
705.974	5114
706.026	5053
706.077	5071
706.129	5058
706.18	5099
706.231	5088
706.283	5096
706.334	5100
706.386	5061
706.437	5041
706.488	5052
706.54	5047
706.591	5089
706.643	5017
706.694	4995
706.745	4973
706.797	5059
706.848	5024
706.899	5008
706.951	5067
707.002	5004
707.054	4970
707.105	5056
707.156	5038
707.208	4978
707.259	4946
707.31	4909
707.362	5007
707.413	4971
707.465	5003
707.516	4962
707.567	4954
707.619	4981
707.67	4912
707.721	4975
707.773	4986
707.824	4904
707.876	4894
707.927	4903
707.978	4852
708.03	4874
708.081	4905
708.132	4898
708.184	4999
708.235	4929
708.287	4947
708.338	4954
708.389	4926
708.441	4877
708.492	4911
708.543	4971
708.595	4930
708.646	4883
708.697	4903
708.749	4870
708.8	4949
708.852	4920
708.903	4909
708.954	4863
709.006	4944
709.057	4887
709.108	4891
709.16	4944
709.211	4899
709.262	4834
709.314	4896
709.365	4864
709.416	4855
709.468	4818
709.519	4909
709.57	4891
709.622	4815
709.673	4861
709.725	4879
709.776	4891
709.827	4879
709.879	4919
709.93	4860
709.981	4880
710.033	4903
710.084	4924
710.135	4833
710.187	4891
710.238	4846
710.289	4860
710.341	4759
710.392	4901
710.443	4831
710.495	4839
710.546	4862
710.597	4836
710.649	4784
710.7	4831
710.751	4769
710.803	4827
710.854	4805
710.905	4786
710.957	4806
711.008	4876
711.059	4792
711.111	4839
711.162	4811
711.213	4859
711.265	4837.15
711.316	4831.12
711.367	4808.36
711.419	4870.51
711.47	4841.22
711.521	4788.65
711.573	4739.14
711.624	4841.3
711.675	4785.12
711.727	4800.37
711.778	4820.85
711.829	4752.95
711.881	4797.17
711.932	4786.95
711.983	4796.84
712.035	4778.98
712.086	4771.32
712.137	4699.33
712.189	4744.01
712.24	4742.02
712.291	4701.66
712.343	4733.75
712.394	4749.32
712.445	4727.15
712.496	4719.7
712.548	4693.94
712.599	4710.01
712.65	4664.33
712.702	4722.88
712.753	4721.91
712.804	4671.02
712.856	4703.92
712.907	4685.56
712.958	4649.62
713.01	4621.86
713.061	4626.89
713.112	4666.45
713.164	4640.56
713.215	4611.7
713.266	4663.69
713.317	4653.08
713.369	4627.75
713.42	4652.29
713.471	4659.04
713.523	4622.69
713.574	4605.64
713.625	4596.83
713.677	4589.08
713.728	4608.62
713.779	4599.12
713.831	4607.82
713.882	4580.08
713.933	4575.64
713.984	4558.13
714.036	4585.31
714.087	4592.51
714.138	4555.82
714.19	4537.73
714.241	4567.7
714.292	4546.03
714.343	4546.62
714.395	4523.24
714.446	4562.47
714.497	4569.25
714.549	4551.44
714.6	4583.59
714.651	4521.07
714.703	4538.58
714.754	4512.7
714.805	4513.27
714.856	4485.42
714.908	4491.92
714.959	4508.27
715.01	4493.46
715.062	4486.24
715.113	4481.78
715.164	4471.36
715.215	4469.62
715.267	4461.39
715.318	4454.64
715.369	4469.05
715.421	4458.48
715.472	4460.35
715.523	4431.23
715.574	4428.16
715.626	4436.91
715.677	4438.7
715.728	4430.63
715.779	4414.88
715.831	4398.75
715.882	4443.15
715.933	4436.27
715.985	4404.68
716.036	4402.91
716.087	4451.92
716.138	4409.17
716.19	4397.64
716.241	4401.67
716.292	4393.14
716.343	4379.3
716.395	4396.32
716.433	4403
716.485	4408
716.536	4456
716.588	4427
716.639	4357
716.691	4390
716.742	4391
716.794	4369
716.845	4370
716.897	4413
716.948	4328
717	4347
717.052	4368
717.103	4291
717.155	4334
717.206	4308
717.258	4311
717.309	4358
717.361	4294
717.412	4273
717.464	4290
717.515	4383
717.567	4302
717.618	4321
717.67	4295
717.721	4307
717.773	4372
717.824	4329
717.876	4342
717.927	4258
717.979	4279
718.03	4253
718.082	4257
718.133	4215
718.185	4248
718.237	4251
718.288	4274
718.34	4222
718.391	4267
718.443	4289
718.494	4262
718.546	4281
718.597	4270
718.649	4266
718.7	4248
718.752	4230
718.803	4285
718.855	4240
718.906	4240
718.958	4223
719.009	4237
719.061	4176
719.112	4192
719.164	4244
719.215	4207
719.267	4139
719.318	4195
719.37	4217
719.421	4199
719.473	4216
719.524	4178
719.576	4208
719.627	4157
719.679	4170
719.73	4223
719.782	4200
719.833	4165
719.885	4111
719.936	4181
719.988	4132
720.039	4145
720.091	4137
720.142	4170
720.194	4095
720.245	4126
720.297	4123
720.348	4156
720.4	4098
720.451	4059
720.503	4084
720.554	4090
720.606	4124
720.657	4046
720.709	4111
720.76	4062
720.812	4054
720.863	4094
720.915	4100
720.966	4085
721.018	4047
721.069	4032
721.121	4054
721.172	4078
721.224	4004
721.275	4065
721.327	4012
721.378	4018
721.43	3992
721.481	4024
721.532	4038
721.584	3961
721.635	4060
721.687	4037
721.738	4035
721.79	3989
721.841	4003
721.893	3997
721.944	4043
721.996	3957
722.047	3973
722.099	3975
722.15	3951
722.202	3961
722.253	3951
722.305	3940
722.356	3909
722.408	3940
722.459	3965
722.511	3928
722.562	3921
722.614	3848
722.665	3851
722.716	3937
722.768	3912
722.819	3926
722.871	3894
722.922	3908
722.974	3929
723.025	3905
723.077	3862
723.128	3918
723.18	3852
723.231	3894
723.283	3849
723.334	3835
723.386	3832
723.437	3884
723.488	3870
723.54	3832
723.591	3886
723.643	3826
723.694	3840
723.746	3851
723.797	3804
723.849	3864
723.9	3857
723.952	3817
724.003	3823
724.055	3841
724.106	3820
724.157	3805
724.209	3848
724.26	3855
724.312	3784
724.363	3736
724.415	3810
724.466	3824
724.518	3795
724.569	3773
724.621	3775
724.672	3736
724.723	3719
724.775	3793
724.826	3773
724.878	3791
724.929	3784
724.981	3748
725.032	3774
725.084	3783
725.135	3787
725.187	3770
725.238	3761
725.289	3699
725.341	3747
725.392	3693
725.444	3688
725.495	3765
725.547	3707
725.598	3729
725.65	3723
725.701	3674
725.752	3640
725.804	3699
725.855	3674
725.907	3629
725.958	3692
726.01	3658
726.061	3706
726.112	3677
726.164	3703
726.215	3675
726.267	3641
726.318	3637
726.37	3691
726.421	3695
726.473	3711
726.524	3673
726.575	3664
726.627	3697
726.678	3631
726.73	3623
726.781	3626
726.833	3668
726.884	3596
726.935	3564
726.987	3639
727.038	3620
727.09	3677
727.141	3684
727.193	3624
727.244	3597
727.295	3623
727.347	3552
727.398	3585
727.45	3595
727.501	3595
727.552	3550
727.604	3580
727.655	3567
727.707	3601
727.758	3556
727.81	3561
727.861	3548
727.912	3623
727.964	3601
728.015	3526
728.067	3550
728.118	3530
728.17	3508
728.221	3537
728.272	3483
728.324	3486
728.375	3562
728.427	3482
728.478	3488
728.529	3515
728.581	3494
728.632	3508
728.684	3474
728.735	3475
728.786	3472
728.838	3476
728.889	3456
728.941	3411
728.992	3411
729.044	3428
729.095	3434
729.146	3424
729.198	3425
729.249	3438
729.301	3396
729.352	3371
729.403	3369
729.455	3408
729.506	3379
729.558	3423
729.609	3435
729.66	3333
729.712	3396
729.763	3354
729.815	3345
729.866	3408
729.917	3321
729.969	3359
730.02	3332
730.072	3346
730.123	3303
730.174	3362
730.226	3322
730.277	3383
730.329	3281
730.38	3287
730.431	3280
730.483	3328
730.534	3270
730.586	3293
730.637	3312
730.688	3270
730.74	3290
730.791	3291
730.842	3339
730.894	3331
730.945	3293
730.997	3306
731.048	3337
731.099	3303
731.151	3266
731.202	3270
731.254	3290
731.305	3244
731.356	3241
731.408	3265
731.459	3216
731.51	3235
731.562	3280
731.613	3243
731.665	3280
731.716	3264
731.767	3245
731.819	3258
731.87	3259
731.922	3260
731.973	3228
732.024	3201
732.076	3275
732.127	3235
732.178	3204
732.23	3220
732.281	3222
732.333	3209
732.384	3233
732.435	3172
732.487	3166
732.538	3197
732.589	3152
732.641	3199
732.692	3198
732.744	3151
732.795	3197
732.846	3207
732.898	3125
732.949	3203
733	3170
733.052	3177
733.103	3171
733.154	3186
733.206	3178
733.257	3168
733.309	3138
733.36	3128
733.411	3127
733.463	3181
733.514	3161
733.565	3179
733.617	3108
733.668	3140
733.719	3135
733.771	3139
733.822	3116
733.873	3127
733.925	3118
733.976	3155
734.028	3142
734.079	3125
734.13	3146
734.182	3101
734.233	3109
734.284	3105
734.336	3043
734.387	3136
734.438	3122
734.49	3071
734.541	3104
734.592	3125
734.644	3085
734.695	3105
734.747	3080
734.798	3151
734.849	3065
734.901	3054
734.952	3078
735.003	3063
735.055	3101
735.106	3073
735.157	3123
735.209	3090
735.26	3084
735.311	3056
735.363	3096
735.414	3100
735.465	3104
735.517	3048
735.568	3087
735.619	3015
735.671	3051
735.722	3076
735.773	3141
735.825	2981
735.876	3089
735.927	3060
735.979	3064
736.03	3040
736.081	3065
736.133	3044
736.184	3105
736.235	3030
736.287	3026
736.338	3008
736.389	3035
736.441	3015
736.492	3045
736.543	3065
736.595	3088
736.646	3050
736.697	3060
736.749	3031
736.8	3017
736.851	3020
736.903	3034
736.954	3047
737.005	2989
737.057	3028
737.108	3017
737.159	2975
737.211	3035
737.262	3045
737.313	3011
737.365	3051
737.416	3036
737.467	3045
737.518	2982
737.57	3010
737.621	3040
737.672	3012
737.724	3011
737.775	3003
737.826	3047
737.878	3035
737.929	3016
737.98	3007
738.032	3006
738.083	3015
738.134	3011
738.186	2965
738.237	3007
738.288	2965
738.339	3002
738.391	3042
738.442	2991
738.493	2994
738.545	3021
738.596	3009
738.647	3009
738.699	2971
738.75	3013
738.801	3000
738.853	2945
738.904	2966
738.955	2948
739.006	2953
739.058	3011
739.109	3022
739.16	3014
739.212	2957
739.263	2931
739.314	2930
739.366	2917
739.417	2954
739.468	2956
739.519	2967
739.571	2962
739.622	2911
739.673	2978
739.725	2986
739.776	2996
739.827	2973
739.878	2925
739.93	2923
739.981	2901
740.032	2891
740.084	2881
740.135	2922
740.186	2932
740.237	2892
740.289	2883
740.34	2899
740.391	2937
740.443	2913
740.494	2931
740.545	2912
740.596	2867
740.648	2892
740.699	2885
740.75	2901
740.802	2871
740.853	2903
740.904	2910
740.956	2902
741.007	2863
741.058	2918
741.109	2882
741.161	2900
741.212	2871
741.263	2829
741.314	2907
741.366	2806
741.417	2930
741.468	2845
741.52	2853
741.571	2845
741.622	2856
741.673	2801
741.725	2837
741.776	2873
741.827	2819
741.878	2830
741.93	2808
741.981	2805
742.032	2829
742.083	2834
742.135	2836
742.186	2800
742.237	2829
742.289	2797
742.34	2832
742.391	2811
742.442	2798
742.494	2801
742.545	2777
742.596	2832
742.647	2804
742.699	2793
742.75	2773
742.801	2779
742.852	2758
742.904	2729
742.955	2767
743.006	2796
743.057	2785
743.109	2794
743.16	2732
743.211	2785
743.263	2746
743.314	2744
743.365	2736
743.416	2735
743.468	2729
743.519	2722
743.57	2755
743.621	2703
743.672	2735
743.724	2738
743.775	2731
743.826	2736
743.878	2727
743.929	2723
743.98	2722
744.031	2709
744.083	2718
744.134	2691
744.185	2693
744.236	2704
744.287	2675
744.339	2725
744.39	2724
744.441	2716
744.492	2722
744.544	2722
744.595	2673
744.646	2672
744.697	2673
744.749	2674
744.8	2724
744.851	2652
744.902	2610
744.954	2687
745.005	2657
745.056	2663
745.107	2658
745.159	2649
745.21	2661
745.261	2638
745.312	2639
745.363	2631
745.415	2634
745.466	2678
745.517	2628
745.568	2664
745.62	2644
745.671	2636
745.722	2696
745.773	2634
745.824	2634
745.876	2606
745.927	2632
745.978	2617
746.029	2664
746.081	2624
746.132	2633
746.183	2579
746.234	2644
746.285	2581
746.337	2633
746.388	2580
746.439	2624
746.49	2609
746.542	2629
746.593	2599
746.644	2559
746.695	2583
746.746	2588
746.798	2615
746.849	2568
746.9	2611
746.951	2557
747.003	2615
747.054	2573
747.105	2576
747.156	2571
747.207	2598
747.259	2602
747.31	2573
747.361	2593
747.412	2604
747.463	2561
747.515	2521
747.566	2533
747.617	2573
747.668	2534
747.719	2602
747.771	2591
747.822	2527
747.873	2538
747.924	2513
747.975	2571
748.027	2521
748.078	2550
748.129	2526
748.18	2552
748.231	2501
748.283	2516
748.334	2499
748.385	2487
748.436	2505
748.487	2506
748.539	2557
748.59	2494
748.641	2511
748.692	2509
748.743	2536
748.795	2553
748.846	2535
748.897	2535
748.948	2537
748.999	2501
749.05	2522
749.102	2491
749.153	2551
749.204	2498
749.255	2529
749.306	2535
749.358	2487
749.409	2503
749.46	2498
749.511	2476
749.562	2508
749.614	2507
749.665	2493
749.716	2430
749.767	2507
749.818	2476
749.869	2439
749.921	2440
749.972	2463
750.023	2457
750.074	2482
750.125	2399
750.177	2455
750.228	2425
750.279	2479
750.33	2417
750.381	2416
750.432	2420
750.484	2524
750.535	2431
750.586	2428
750.637	2451
750.688	2457
750.739	2407
750.791	2447
750.842	2458
750.893	2411
750.944	2407
750.995	2417
751.046	2393
751.098	2390
751.149	2412
751.2	2372
751.251	2381
751.302	2390
751.353	2398
751.404	2452
751.456	2445
751.507	2337
751.558	2400
751.609	2376
751.66	2374
751.711	2365
751.763	2353
751.814	2326
751.865	2384
751.916	2362
751.967	2378
752.018	2366
752.07	2363
752.121	2342
752.172	2392
752.223	2388
752.274	2331
752.325	2360
752.376	2344
752.428	2362
752.479	2365
752.53	2312
752.581	2342
752.632	2315
752.683	2324
752.734	2368
752.786	2345
752.837	2331
752.888	2287
752.939	2321
752.99	2295
753.041	2337
753.092	2263
753.144	2315
753.195	2275
753.246	2285
753.297	2296
753.348	2312
753.399	2339
753.45	2309
753.502	2276
753.553	2306
753.604	2232
753.655	2277
753.706	2286
753.757	2281
753.808	2279
753.859	2289
753.911	2242
753.962	2233
754.013	2314
754.064	2269
754.115	2274
754.166	2247
754.217	2273
754.269	2248
754.32	2217
754.371	2210
754.422	2225
754.473	2250
754.524	2229
754.575	2237
754.626	2259
754.678	2226
754.729	2248
754.78	2193
754.831	2245
754.882	2211
754.933	2216
754.984	2234
755.035	2211
755.086	2219
755.138	2224
755.189	2226
755.24	2214
755.291	2173
755.342	2174
755.393	2176
755.444	2206
755.495	2208
755.547	2216
755.598	2189
755.649	2196
755.7	2183
755.751	2189
755.802	2170
755.853	2181
755.904	2159
755.955	2160
756.006	2183
756.058	2149
756.109	2172
756.16	2176
756.211	2156
756.262	2160
756.313	2187
756.364	2162
756.415	2165
756.466	2154
756.518	2180
756.569	2136
756.62	2158
756.671	2186
756.722	2125
756.773	2127
756.824	2129
756.875	2093
756.926	2131
756.977	2101
757.029	2129
757.08	2130
757.131	2112
757.182	2105
757.233	2121
757.284	2115
757.335	2110
757.386	2122
757.437	2114
757.488	2121
757.539	2120
757.59	2139
757.642	2080
757.693	2093
757.744	2052
757.795	2113
757.846	2081
757.897	2147
757.948	2092
757.999	2106
758.05	2105
758.101	2046
758.152	2089
758.203	2106
758.255	2071
758.306	2082
758.357	2096
758.408	2105
758.459	2083
758.51	2051.12
758.561	2074.12
758.612	2073.55
758.663	2076.81
758.714	2064.31
758.765	2028.94
758.816	2043.21
758.867	2055.76
758.919	2048.15
758.97	2060.43
759.021	2002.5
759.072	2026.74
759.123	2026.42
759.174	2053.05
759.225	2047.03
759.276	2019.95
759.327	2011.15
759.378	2053.18
759.429	2038.92
759.48	2008.74
759.531	2058.92
759.582	2033.13
759.633	2007.53
759.685	1999.8
759.736	2007.06
759.787	2017.4
759.838	2020.82
759.889	2018.26
759.94	2012.81
759.991	2002.84
760.042	1998.93
760.093	1998.33
760.144	2013.3
760.195	2019.9
760.246	1950.87
760.297	1987.89
760.348	1956.92
760.399	1953.04
760.45	1992.28
760.501	2006.6
760.552	1959.86
760.603	1964.19
760.655	1932.64
760.706	1978.79
760.757	1950.99
760.808	1930.72
760.859	1935.63
760.91	1930.6
760.961	1949.15
761.012	1982.33
761.063	1938.44
761.114	1923.64
761.165	1926.76
761.216	1949.79
761.267	1917.07
761.318	1939.32
761.369	1914.54
761.42	1960.79
761.471	1927.48
761.522	1908.91
761.573	1910.29
761.624	1921.84
761.675	1925.09
761.726	1938.69
761.777	1935.35
761.828	1923.87
761.88	1906.29
761.931	1958.45
761.982	1894.4
762.033	1923.32
762.084	1901.58
762.135	1923.57
762.186	1923.37
762.237	1912.42
762.288	1865.53
762.339	1888.18
762.39	1887.82
762.441	1875.74
762.492	1880.09
762.543	1913.74
762.594	1922.95
762.645	1910.84
762.696	1878.79
762.747	1877.38
762.798	1881.95
762.849	1846.26
762.9	1869.25
762.951	1838.45
763.002	1860.82
763.053	1865.63
763.104	1861.68
763.155	1866.01
763.206	1836.11
763.257	1835.14
763.308	1849.24
763.359	1859.24
763.41	1851.84
763.461	1847.49
763.512	1823.03
763.563	1837.76
763.614	1836.67
763.665	1839
763.678	1841
763.729	1870
763.78	1825
763.832	1839
763.883	1830
763.934	1792
763.986	1803
764.037	1790
764.088	1810
764.139	1805
764.191	1806
764.242	1824
764.293	1813
764.345	1784
764.396	1796
764.447	1774
764.498	1789
764.55	1804
764.601	1836
764.652	1792
764.704	1797
764.755	1784
764.806	1767
764.857	1792
764.909	1803
764.96	1838
765.011	1790
765.062	1813
765.114	1775
765.165	1750
765.216	1742
765.268	1790
765.319	1810
765.37	1743
765.421	1775
765.473	1726
765.524	1800
765.575	1783
765.626	1772
765.678	1766
765.729	1755
765.78	1750
765.831	1743
765.883	1715
765.934	1770
765.985	1722
766.036	1781
766.088	1721
766.139	1737
766.19	1760
766.242	1713
766.293	1712
766.344	1714
766.395	1733
766.447	1722
766.498	1713
766.549	1724
766.6	1698
766.652	1718
766.703	1718
766.754	1698
766.805	1706
766.857	1736
766.908	1710
766.959	1729
767.01	1688
767.062	1685
767.113	1685
767.164	1715
767.215	1694
767.267	1683
767.318	1689
767.369	1681
767.42	1673
767.472	1684
767.523	1698
767.574	1687
767.625	1667
767.677	1667
767.728	1710
767.779	1699
767.83	1676
767.882	1680
767.933	1678
767.984	1704
768.035	1643
768.087	1656
768.138	1668
768.189	1643
768.24	1638
768.292	1625
768.343	1650
768.394	1626
768.445	1606
768.497	1655
768.548	1652
768.599	1620
768.65	1616
768.701	1651
768.753	1598
768.804	1654
768.855	1600
768.906	1616
768.958	1600
769.009	1618
769.06	1621
769.111	1626
769.163	1597
769.214	1603
769.265	1610
769.316	1589
769.367	1601
769.419	1610
769.47	1571
769.521	1588
769.572	1624
769.624	1647
769.675	1562
769.726	1563
769.777	1599
769.828	1613
769.88	1556
769.931	1578
769.982	1610
770.033	1552
770.085	1575
770.136	1566
770.187	1580
770.238	1579
770.289	1557
770.341	1570
770.392	1569
770.443	1554
770.494	1568
770.546	1542
770.597	1534
770.648	1570
770.699	1567
770.75	1518
770.802	1540
770.853	1527
770.904	1513
770.955	1533
771.006	1544
771.058	1570
771.109	1512
771.16	1514
771.211	1504
771.263	1549
771.314	1516
771.365	1552
771.416	1513
771.467	1542
771.519	1481
771.57	1539
771.621	1548
771.672	1517
771.723	1500
771.775	1479
771.826	1520
771.877	1489
771.928	1523
771.979	1491
772.031	1493
772.082	1495
772.133	1483
772.184	1476
772.235	1496
772.287	1486
772.338	1500
772.389	1474
772.44	1510
772.491	1514
772.543	1460
772.594	1462
772.645	1447
772.696	1469
772.747	1452
772.799	1481
772.85	1454
772.901	1479
772.952	1470
773.003	1477
773.055	1442
773.106	1462
773.157	1433
773.208	1460
773.259	1442
773.31	1436
773.362	1427
773.413	1449
773.464	1420
773.515	1440
773.566	1405
773.618	1412
773.669	1414
773.72	1439
773.771	1433
773.822	1428
773.873	1439
773.925	1404
773.976	1406
774.027	1395
774.078	1423
774.129	1403
774.18	1420
774.232	1396
774.283	1415
774.334	1386
774.385	1417
774.436	1409
774.488	1399
774.539	1435
774.59	1390
774.641	1398
774.692	1384
774.743	1392
774.795	1393
774.846	1385
774.897	1354
774.948	1357
774.999	1392
775.05	1386
775.102	1372
775.153	1386
775.204	1353
775.255	1384
775.306	1384
775.357	1362
775.409	1339
775.46	1358
775.511	1350
775.562	1344
775.613	1328
775.664	1363
775.716	1353
775.767	1343
775.818	1355
775.869	1362
775.92	1305
775.971	1355
776.023	1310
776.074	1338
776.125	1355
776.176	1363
776.227	1335
776.278	1328
776.329	1309
776.381	1307
776.432	1353
776.483	1286
776.534	1369
776.585	1318
776.636	1303
776.688	1285
776.739	1313
776.79	1313
776.841	1293
776.892	1327
776.943	1352
776.994	1324
777.046	1305
777.097	1298
777.148	1296
777.199	1275
777.25	1322
777.301	1296
777.352	1303
777.404	1298
777.455	1306
777.506	1297
777.557	1272
777.608	1277
777.659	1311
777.71	1279
777.762	1293
777.813	1275
777.864	1313
777.915	1265
777.966	1309
778.017	1261
778.068	1254
778.12	1283
778.171	1269
778.222	1287
778.273	1278
778.324	1258
778.375	1248
778.426	1260
778.477	1232
778.529	1263
778.58	1243
778.631	1259
778.682	1241
778.733	1241
778.784	1262
778.835	1243
778.886	1239
778.938	1243
778.989	1256
779.04	1240
779.091	1215
779.142	1248
779.193	1222
779.244	1237
779.295	1241
779.347	1230
779.398	1209
779.449	1233
779.5	1237
779.551	1265
779.602	1223
779.653	1199
779.704	1231
779.755	1181
779.807	1263
779.858	1202
779.909	1227
779.96	1204
780.011	1237
780.062	1175
780.113	1204
780.164	1218
780.216	1206
780.267	1182
780.318	1199
780.369	1194
780.42	1215
780.471	1193
780.522	1207
780.573	1193
780.624	1186
780.675	1174
780.727	1220
780.778	1197
780.829	1188
780.88	1208
780.931	1172
780.982	1179
781.033	1191
781.084	1184
781.135	1174
781.187	1189
781.238	1194
781.289	1170
781.34	1164
781.391	1147
781.442	1211
781.493	1177
781.544	1167
781.595	1166
781.646	1142
781.698	1150
781.749	1128
781.8	1131
781.851	1154
781.902	1167
781.953	1161
782.004	1167
782.055	1160
782.106	1138
782.157	1149
782.208	1155
782.26	1141
782.311	1128
782.362	1159
782.413	1125
782.464	1133
782.515	1154
782.566	1128
782.617	1129
782.668	1124
782.719	1115
782.77	1118
782.821	1081
782.872	1118
782.924	1126
782.975	1107
783.026	1115
783.077	1111
783.128	1118
783.179	1113
783.23	1094
783.281	1107
783.332	1100
783.383	1093
783.434	1097
783.485	1110
783.536	1119
783.588	1073
783.639	1101
783.69	1116
783.741	1112
783.792	1112
783.843	1077
783.894	1101
783.945	1062
783.996	1106
784.047	1069
784.098	1060
784.149	1089
784.2	1108
784.252	1063
784.303	1084
784.354	1070
784.405	1077
784.456	1075
784.507	1080
784.558	1085
784.609	1085
784.66	1072
784.711	1061
784.762	1075
784.813	1061
784.864	1061
784.915	1063
784.966	1054
785.017	1058
785.068	1046
785.12	1039
785.171	1043
785.222	1072
785.273	1036
785.324	1033
785.375	1031
785.426	1065
785.477	1041
785.528	1028
785.579	1050
785.63	1029
785.681	1057
785.732	1039
785.783	1040
785.834	1039
785.885	1035
785.936	1029
785.987	1026
786.038	1028
786.089	1046
786.141	1025
786.192	1015
786.243	1027
786.294	1018
786.345	1033
786.396	1003
786.447	1007
786.498	983
786.549	1012
786.6	1023
786.651	1034
786.702	1018
786.753	1017
786.804	1003
786.855	1013
786.906	1007
786.957	1004
787.008	1000
787.059	1021
787.11	1016
787.161	1005
787.212	958
787.263	999
787.314	995
787.365	999
787.416	990
787.467	995
787.518	978
787.57	989
787.621	980
787.672	976
787.723	968
787.774	981
787.825	1021
787.876	973
787.927	980
787.978	966
788.029	971
788.08	974
788.131	962
788.182	976
788.233	968
788.284	964
788.335	962
788.386	959
788.437	948
788.488	941
788.539	939
788.59	946
788.641	941
788.692	971
788.743	916
788.794	937
788.845	947
788.896	937
788.947	942
788.998	947
789.049	953
789.1	940
789.151	953
789.202	921
789.253	928
789.304	931
789.355	941
789.406	939
789.457	954
789.508	941
789.559	929
789.61	911
789.661	938
789.712	927
789.763	928
789.814	921
789.865	918
789.916	900
789.967	917
790.018	944
790.069	903
790.12	904
790.171	918
790.222	897
790.273	907
790.324	912
790.375	900
790.426	899
790.477	883
790.528	919
790.579	921
790.63	932
790.681	891
790.732	897
790.783	906
790.834	874
790.885	902
790.936	892
790.987	883
791.038	870
791.089	905
791.14	897
791.191	897
791.242	876
791.293	883
791.344	869
791.395	881
791.446	877
791.497	886
791.548	882
791.599	865
791.65	871
791.701	870
791.752	880
791.803	873
791.854	890
791.905	874
791.956	870
792.007	856
792.058	854
792.109	876
792.16	864
792.211	887
792.262	872
792.313	858
792.363	869
792.414	863
792.465	859
792.516	860
792.567	841
792.618	842
792.669	856
792.72	867
792.771	870
792.822	823
792.873	839
792.924	863
792.975	844
793.026	833
793.077	813
793.128	844
793.179	846
793.23	852
793.281	834
793.332	823
793.383	809
793.434	834
793.485	828
793.536	861
793.587	831
793.638	825
793.689	831
793.74	830
793.79	828
793.841	826
793.892	846
793.943	832
793.994	814
794.045	817
794.096	830
794.147	852
794.198	818
794.249	813
794.3	820
794.351	778
794.402	825
794.453	799
794.504	816
794.555	796
794.606	792
794.657	827
794.708	824
794.758	805
794.809	807
794.86	797
794.911	789
794.962	770
795.013	790
795.064	807
795.115	809
795.166	803
795.217	784
795.268	794
795.319	775
795.37	778
795.421	781
795.472	763
795.523	769
795.573	748
795.624	780
795.675	778
795.726	764
795.777	798
795.828	801
795.879	784
795.93	776
795.981	775
796.032	767
796.083	767
796.134	794
796.185	783
796.236	760
796.286	745
796.337	750
796.388	756
796.439	772
796.49	761
796.541	775
796.592	749
796.643	752
796.694	747
796.745	761
796.796	735
796.847	757
796.897	747
796.948	738
796.999	734
797.05	749
797.101	746
797.152	754
797.203	757
797.254	714
797.305	744
797.356	744
797.407	756
797.458	740
797.508	706
797.559	752
797.61	743
797.661	730
797.712	720
797.763	742
797.814	733
797.865	732
797.916	714
797.967	717
798.018	719
798.068	741
798.119	704
798.17	734
798.221	738
798.272	714
798.323	715
798.374	703
798.425	712
798.476	752
798.526	700
798.577	728
798.628	730
798.679	742
798.73	689
798.781	709
798.832	714
798.883	719
798.934	715
798.984	711
799.035	707
799.086	702
799.137	716
799.188	689
799.239	724
799.29	729
799.341	692
799.392	711
799.443	710
799.493	702
799.544	695
799.595	715
799.646	682
799.697	706
799.748	680
799.799	703
799.85	683
799.9	689
799.951	666
800.002	705
800.053	684
800.104	683
800.155	677
800.206	709
800.257	688
800.307	697
800.358	686
800.409	695
800.46	669
800.511	675
800.562	672
800.613	680
800.664	682
800.714	678
800.765	696
800.816	673
800.867	670
800.918	665
800.969	646
801.02	679
801.07	679
801.121	686
801.172	648
801.223	658
801.274	663
801.325	666
801.376	636
801.427	677
801.477	684
801.528	656
801.579	641
801.63	671
801.681	634
801.732	661
801.783	645
801.833	655
801.884	666
801.935	630
801.986	644
802.037	643
802.088	666
802.139	655
802.189	636
802.24	659
802.291	646
802.342	636
802.393	664
802.444	650
802.495	655
802.545	646
802.596	644
802.647	645
802.698	633
802.749	627
802.8	622
802.85	643
802.901	635
802.952	650
803.003	621
803.054	635
803.105	633
803.155	633
803.206	633
803.257	636
803.308	637
803.359	653
803.41	642
803.46	622
803.511	616
803.562	629
803.613	634
803.664	600
803.715	622
803.765	619
803.816	616
803.867	624
803.918	623
803.969	607
804.02	610
804.07	626
804.121	623
804.172	596
804.223	579
804.274	622
804.325	639
804.375	621
804.426	613
804.477	633
804.528	608
804.579	595
804.63	577
804.68	593
804.731	594
804.782	586
804.833	595
804.884	610
804.934	598
804.985	614
805.036	602
805.087	612
805.138	593
805.188	602
805.239	600
805.29	598
805.341	611
805.392	584
805.443	597
805.493	595.975
805.544	604.85
805.595	591.158
805.646	592.739
805.697	575.096
805.747	608.356
805.798	606.548
805.849	605.561
805.9	583.435
805.951	565.435
806.001	588.36
806.052	569.163
806.103	570.258
806.154	584.416
806.205	571.013
806.255	580.073
806.306	557.452
806.357	584.183
806.408	584.092
806.459	569.56
806.509	567.5
806.56	562.357
806.611	560.794
806.662	573.683
806.713	563.599
806.763	582.171
806.814	568.552
806.865	575.765
806.916	581.629
806.967	570.667
807.017	573.884
807.068	572.829
807.119	567.906
807.17	580.314
807.22	566.375
807.271	559.871
807.322	548.249
807.373	561.031
807.424	561.392
807.474	559.249
807.525	567.75
807.576	556.406
807.627	562.212
807.678	559.013
807.728	536.803
807.779	548.051
807.83	545.382
807.881	562.178
807.931	555.854
807.982	545.374
808.033	541.875
808.084	561.067
808.135	568.889
808.185	544.951
808.236	545.912
808.287	540.466
808.338	532.659
808.388	530.581
808.439	547.775
808.49	533.951
808.541	537.248
808.591	538.807
808.642	550.521
808.693	541.304
808.744	533.882
808.795	548.421
808.845	547.004
808.896	519.592
808.947	535.533
808.998	543.326
809.048	539.459
809.099	542.157
809.15	517.068
809.201	531.61
809.251	536.534
809.302	542.992
809.353	535.542
809.404	525.696
809.454	524.152
809.505	532.642
809.556	521.434
809.607	520.147
809.658	532.5
809.708	529.284
809.759	511.547
809.81	526.211
809.861	518.761
809.911	526.616
809.962	510.188
810.013	515.495
810.064	497.072
810.114	513.08
810.165	525.166
810.216	525.363
810.267	533.633
810.317	526.17
810.368	508.325
810.419	511.758
810.469	520.774
810.52	529.191
810.571	530
810.622	513.921
810.627	512
810.678	512
810.729	506
810.78	517
810.831	506
810.882	496
810.933	515
810.984	504
811.035	507
811.086	497
811.137	522
811.188	517
811.239	507
811.29	479
811.341	514
811.392	481
811.443	521
811.494	496
811.545	511
811.596	485
811.648	494
811.699	496
811.75	511
811.801	503
811.852	505
811.903	490
811.954	471
812.005	494
812.056	495
812.107	496
812.158	493
812.209	478
812.26	495
812.311	472
812.362	501
812.413	502
812.464	481
812.515	480
812.566	510
812.617	482
812.668	490
812.719	476
812.77	487
812.821	471
812.872	479
812.923	502
812.974	494
813.025	478
813.076	499
813.127	496
813.178	482
813.229	478
813.28	481
813.331	465
813.382	473
813.433	474
813.484	473
813.535	466
813.586	464
813.637	472
813.688	479
813.739	469
813.79	482
813.841	486
813.892	471
813.943	466
813.994	443
814.045	472
814.096	448
814.147	458
814.198	472
814.249	459
814.3	480
814.351	448
814.402	448
814.453	482
814.504	465
814.555	451
814.606	482
814.657	453
814.708	460
814.759	454
814.81	450
814.861	451
814.912	451
814.963	450
815.014	468
815.065	473
815.116	461
815.167	445
815.217	457
815.268	463
815.319	481
815.37	458
815.421	437
815.472	453
815.523	438
815.574	445
815.625	452
815.676	457
815.727	428
815.778	448
815.829	434
815.88	457
815.931	440
815.982	438
816.033	434
816.084	445
816.135	424
816.186	429
816.237	461
816.288	426
816.339	440
816.39	440
816.441	429
816.492	445
816.543	435
816.594	437
816.645	422
816.696	416
816.747	441
816.798	421
816.849	427
816.9	444
816.951	443
817.001	425
817.052	421
817.103	426
817.154	417
817.205	429
817.256	424
817.307	429
817.358	423
817.409	422
817.46	435
817.511	417
817.562	453
817.613	424
817.664	426
817.715	418
817.766	414
817.817	439
817.868	418
817.919	407
817.97	404
818.021	410
818.071	422
818.122	415
818.173	402
818.224	424
818.275	433
818.326	426
818.377	428
818.428	416
818.479	409
818.53	422
818.581	410
818.632	395
818.683	407
818.734	431
818.785	423
818.836	422
818.887	415
818.938	395
818.988	404
819.039	385
819.09	421
819.141	397
819.192	409
819.243	418
819.294	404
819.345	418
819.396	405
819.447	418
819.498	394
819.549	415
819.6	419
819.651	390
819.702	410
819.753	412
819.803	395
819.854	417
819.905	395
819.956	402
820.007	386
820.058	405
820.109	405
820.16	393
820.211	399
820.262	389
820.313	392
820.364	399
820.415	400
820.465	401
820.516	379
820.567	391
820.618	380
820.669	397
820.72	398
820.771	394
820.822	391
820.873	389
820.924	382
820.975	379
821.026	405
821.076	376
821.127	378
821.178	389
821.229	396
821.28	380
821.331	396
821.382	400
821.433	384
821.484	383
821.535	389
821.586	392
821.637	394
821.687	389
821.738	391
821.789	395
821.84	378
821.891	389
821.942	384
821.993	366
822.044	390
822.095	383
822.146	384
822.196	394
822.247	353
822.298	383
822.349	397
822.4	385
822.451	395
822.502	365
822.553	363
822.604	378
822.655	373
822.706	387
822.756	372
822.807	355
822.858	360
822.909	369
822.96	382
823.011	370
823.062	367
823.113	370
823.164	369
823.214	373
823.265	352
823.316	346
823.367	356
823.418	363
823.469	365
823.52	367
823.571	350
823.622	356
823.672	353
823.723	366
823.774	334
823.825	376
823.876	374
823.927	356
823.978	353
824.029	358
824.08	368
824.13	371
824.181	353
824.232	366
824.283	350
824.334	369
824.385	352
824.436	343
824.487	351
824.537	373
824.588	360
824.639	364
824.69	352
824.741	352
824.792	351
824.843	348
824.893	343
824.944	350
824.995	347
825.046	347
825.097	338
825.148	358
825.199	355
825.25	325
825.3	364
825.351	354
825.402	346
825.453	345
825.504	340
825.555	355
825.606	335
825.657	354
825.707	355
825.758	354
825.809	329
825.86	363
825.911	349
825.962	335
826.013	346
826.063	346
826.114	342
826.165	332
826.216	334
826.267	341
826.318	334
826.369	344
826.419	347
826.47	343
826.521	337
826.572	353
826.623	332
826.674	350
826.725	329
826.775	340
826.826	329
826.877	320
826.928	330
826.979	353
827.03	340
827.08	348
827.131	341
827.182	340
827.233	328
827.284	332
827.335	326
827.386	331
827.436	338
827.487	336
827.538	329
827.589	327
827.64	324
827.691	325
827.741	333
827.792	336
827.843	320
827.894	333
827.945	334
827.996	336
828.046	342
828.097	338
828.148	317
828.199	323
828.25	344
828.301	337
828.351	319
828.402	339
828.453	333
828.504	322
828.555	318
828.606	326
828.656	321
828.707	335
828.758	327
828.809	316
828.86	322
828.911	335
828.961	316
829.012	331
829.063	334
829.114	337
829.165	325
829.216	313
829.266	313
829.317	337
829.368	315
829.419	330
829.47	328
829.52	327
829.571	325
829.622	337
829.673	322
829.724	321
829.774	288
829.825	303
829.876	303
829.927	319
829.978	328
830.029	317
830.079	310
830.13	315
830.181	311
830.232	309
830.283	306
830.333	307
830.384	298
830.435	307
830.486	319
830.537	300
830.587	321
830.638	315
830.689	289
830.74	315
830.791	310
830.841	305
830.892	313
830.943	313
830.994	317
831.045	313
831.095	309
831.146	305
831.197	330
831.248	303
831.299	310
831.349	295
831.4	293
831.451	300
831.502	292
831.553	327
831.603	316
831.654	293
831.705	309
831.756	299
831.807	308
831.857	298
831.908	280
831.959	302
832.01	293
832.061	298
832.111	302
832.162	317
832.213	300
832.264	306
832.315	295
832.365	290
832.416	293
832.467	304
832.518	296
832.568	293
832.619	302
832.67	299
832.721	301
832.772	282
832.822	295
832.873	284
832.924	290
832.975	286
833.025	299
833.076	306
833.127	284
833.178	288
833.229	290
833.279	297
833.33	294
833.381	299
833.432	293
833.482	295
833.533	302
833.584	294
833.635	278
833.685	288
833.736	291
833.787	289
833.838	273
833.889	295
833.939	276
833.99	301
834.041	292
834.092	279
834.142	275
834.193	275
834.244	286
834.295	287
834.345	287
834.396	279
834.447	297
834.498	283
834.548	281
834.599	275
834.65	282
834.701	276
834.751	274
834.802	285
834.853	270
834.904	274
834.954	288
835.005	290
835.056	284
835.107	271
835.157	285
835.208	295
835.259	281
835.31	276
835.36	277
835.411	265
835.462	289
835.513	269
835.563	279
835.614	269
835.665	273
835.716	269
835.766	267
835.817	274
835.868	264
835.919	278
835.969	281
836.02	273
836.071	289
836.122	280
836.172	261
836.223	280
836.274	276
836.325	268
836.375	277
836.426	268
836.477	268
836.528	279
836.578	284
836.629	279
836.68	277
836.73	265
836.781	274
836.832	276
836.883	257
836.933	269
836.984	281
837.035	269
837.086	275
837.136	276
837.187	262
837.238	258
837.288	265
837.339	280
837.39	284
837.441	268
837.491	268
837.542	271
837.593	272
837.643	269
837.694	266
837.745	265
837.796	263
837.846	263
837.897	278
837.948	255
837.999	271
838.049	251
838.1	262
838.151	264
838.201	267
838.252	251
838.303	262
838.354	266
838.404	257
838.455	269
838.506	258
838.556	261
838.607	263
838.658	275
838.708	261
838.759	267
838.81	251
838.861	262
838.911	252
838.962	263
839.013	258
839.063	263
839.114	262
839.165	259
839.216	269
839.266	252
839.317	261
839.368	247
839.418	261
839.469	255
839.52	240
839.57	259
839.621	266
839.672	247
839.722	243
839.773	246
839.824	247
839.875	253
839.925	268
839.976	241
840.027	262
840.077	241
840.128	250
840.179	252
840.229	241
840.28	247
840.331	263
840.381	251
840.432	256
840.483	247
840.534	244
840.584	246
840.635	245
840.686	245
840.736	242
840.787	246
840.838	236
840.888	252
840.939	249
840.99	256
841.04	255
841.091	240
841.142	249
841.192	241
841.243	245
841.294	241
841.344	247
841.395	240
841.446	249
841.496	248
841.547	242
841.598	233
841.648	246
841.699	250
841.75	237
841.8	241
841.851	244
841.902	242
841.952	241
842.003	232
842.054	242
842.104	251
842.155	246
842.206	236
842.256	241
842.307	236
842.358	244
842.408	232
842.459	244
842.51	240
842.56	245
842.611	235
842.662	229
842.712	232
842.763	232
842.814	241
842.864	238
842.915	237
842.966	239
843.016	228
843.067	241
843.118	237
843.168	240
843.219	236
843.269	239
843.32	243
843.371	235
843.421	234
843.472	253
843.523	241
843.573	230
843.624	237
843.675	240
843.725	224
843.776	235
843.827	245
843.877	248
843.928	232
843.979	239
844.029	223
844.08	232
844.13	230
844.181	230
844.232	227
844.282	233
844.333	232
844.384	240
844.434	229
844.485	228
844.536	233
844.586	247
844.637	238
844.687	233
844.738	236
844.789	242
844.839	235
844.89	234
844.941	234
844.991	230
845.042	223
845.092	231
845.143	222
845.194	238
845.244	229
845.295	244
845.346	218
845.396	229
845.447	232
845.497	226
845.548	227
845.599	239
845.649	227
845.7	228
845.75	217
845.801	210
845.852	217
845.902	222
845.953	219
846.004	232
846.054	225
846.105	222
846.155	224
846.206	222
846.257	218
846.307	222
846.358	210
846.409	226
846.459	210
846.51	227
846.56	238
846.611	213
846.661	221
846.712	218
846.763	203
846.813	226
846.864	220
846.915	230
846.965	223
847.016	219
847.066	222
847.117	224
847.168	214
847.218	227
847.269	220
847.319	229
847.37	217
847.421	209
847.471	200
847.522	207
847.572	207
847.623	215
847.674	211
847.724	212
847.775	220
847.825	211
847.876	213
847.926	209
847.977	217
848.028	213
848.078	202
848.129	211
848.179	213
848.23	207
848.281	199
848.331	216
848.382	210
848.432	211
848.483	212
848.534	213
848.584	202
848.635	212
848.685	202
848.736	212
848.786	222
848.837	215
848.888	208
848.938	207
848.989	206
849.039	205
849.09	208
849.14	215
849.191	207
849.242	205
849.292	210
849.343	208
849.393	208
849.444	203
849.494	211
849.545	201
849.596	204
849.646	218
849.697	220
849.747	211
849.798	208
849.848	208
849.899	207
849.95	213
850	213
850.051	205
850.101	196
850.152	208
850.202	215
850.253	194
850.303	206
850.354	206
850.405	189
850.455	202
850.506	199
850.556	206
850.607	199
850.657	201
850.708	190
850.758	193
850.809	197
850.86	207
850.91	203
850.961	203
851.011	197
851.062	194
851.112	206
851.163	204
851.213	192
851.264	188
851.314	206
851.365	205
851.416	204
851.466	204
851.517	180
851.567	188
851.618	200
851.668	189
851.719	193
851.769	191
851.82	200
851.87	195
851.921	199
851.971	190
852.022	180
852.073	188
852.123	192
852.174	204
852.224	203
852.275	201
852.325	207.982
852.376	190.972
852.426	188.131
852.477	201.138
852.527	192.444
852.578	183.167
852.628	195.193
852.679	194.258
852.729	192.494
852.78	191.732
852.831	188.488
852.881	185.776
852.932	185.152
852.982	197.801
853.033	188.201
853.083	186.793
853.134	194.436
853.184	191.295
853.235	180.308
853.285	179.572
853.336	190.128
853.386	185.804
853.437	191.404
853.487	194.447
853.538	190.567
853.588	190.082
853.639	195.469
853.689	187.604
853.74	187.187
853.79	192.398
853.841	194.915
853.891	188.656
853.942	185.463
853.992	182.531
854.043	179.307
854.093	183.453
854.144	184.494
854.194	177.25
854.245	189.007
854.295	180.716
854.346	193.211
854.396	182.89
854.447	178.574
854.497	177.91
854.548	189.403
854.598	188.308
854.649	180.862
854.699	182.35
854.75	188.173
854.8	185.368
854.851	188.244
854.901	183.791
854.952	185.988
855.002	179.175
855.053	184.092
855.103	184.555
855.154	185.501
855.204	175.563
855.255	179.404
855.305	176.875
855.356	191.193
855.406	171.499
855.457	173.819
855.507	180.631
855.558	181.698
855.608	178.909
855.659	179.492
855.709	185.254
855.76	183
855.81	184.967
855.861	187.844
855.911	179.568
855.962	179.727
856.012	174.908
856.063	172.538
856.113	173.261
856.164	182.497
856.214	180.241
856.265	178.023
856.315	174.416
856.366	180.726
856.416	175.246
856.467	169.826
856.517	176.728
856.568	186.606
856.618	181.719
856.668	178.163
856.719	174.875
856.769	175.729
856.82	174.071
856.87	174.615
856.921	175.785
856.971	175.605
857.022	173.179
857.072	171.963
857.123	175.671
857.173	178.127
857.224	170.246
857.274	168.567
857.325	175.177
857.352	180
857.403	165
857.453	167
857.504	170
857.555	174
857.606	174
857.656	171
857.707	159
857.758	179
857.809	171
857.859	166
857.91	174
857.961	174
858.012	179
858.063	169
858.113	164
858.164	164
858.215	167
858.266	166
858.316	165
858.367	166
858.418	171
858.469	166
858.519	170
858.57	177
858.621	177
858.672	167
858.722	166
858.773	173
858.824	176
858.875	172
858.925	160
858.976	172
859.027	174
859.078	173
859.128	162
859.179	164
859.23	167
859.281	166
859.331	157
859.382	163
859.433	172
859.483	170
859.534	169
859.585	164
859.636	170
859.686	162
859.737	168
859.788	175
859.839	159
859.889	159
859.94	167
859.991	179
860.042	166
860.092	168
860.143	163
860.194	155
860.245	169
860.295	163
860.346	166
860.397	166
860.447	170
860.498	156
860.549	156
860.6	165
860.65	157
860.701	154
860.752	149
860.802	168
860.853	178
860.904	160
860.955	161
861.005	162
861.056	176
861.107	170
861.158	157
861.208	171
861.259	167
861.31	169
861.36	152
861.411	162
861.462	161
861.513	166
861.563	155
861.614	168
861.665	169
861.715	153
861.766	145
861.817	165
861.868	159
861.918	158
861.969	154
862.02	170
862.07	170
862.121	156
862.172	155
862.223	168
862.273	155
862.324	169
862.375	166
862.425	167
862.476	158
862.527	147
862.577	159
862.628	159
862.679	153
862.73	154
862.78	149
862.831	165
862.882	154
862.932	157
862.983	150
863.034	164
863.084	147
863.135	161
863.186	163
863.237	162
863.287	163
863.338	149
863.389	156
863.439	165
863.49	149
863.541	144
863.591	159
863.642	165
863.693	164
863.744	161
863.794	152
863.845	171
863.896	158
863.946	144
863.997	148
864.048	157
864.098	160
864.149	151
864.2	154
864.25	166
864.301	155
864.352	151
864.402	146
864.453	154
864.504	148
864.555	146
864.605	146
864.656	155
864.707	149
864.757	151
864.808	143
864.859	140
864.909	148
864.96	151
865.011	150
865.061	144
865.112	149
865.163	146
865.213	155
865.264	146
865.315	146
865.365	144
865.416	143
865.467	148
865.517	152
865.568	141
865.619	141
865.669	159
865.72	161
865.771	145
865.821	143
865.872	153
865.923	149
865.973	153
866.024	146
866.075	154
866.125	157
866.176	138
866.227	152
866.277	147
866.328	151
866.379	152
866.429	135
866.48	153
866.531	139
866.581	153
866.632	140
866.683	135
866.733	143
866.784	157
866.835	135
866.885	155
866.936	146
866.987	158
867.037	131
867.088	152
867.138	149
867.189	154
867.24	140
867.29	154
867.341	153
867.392	147
867.442	143
867.493	156
867.544	150
867.594	136
867.645	134
867.696	142
867.746	154
867.797	149
867.848	131
867.898	158
867.949	151
867.999	140
868.05	132
868.101	137
868.151	141
868.202	138
868.253	137
868.303	138
868.354	149
868.405	145
868.455	139
868.506	139
868.556	154
868.607	134
868.658	143
868.708	145
868.759	147
868.81	151
868.86	130
868.911	149
868.961	133
869.012	143
869.063	138
869.113	150
869.164	147
869.215	149
869.265	140
869.316	136
869.367	152
869.417	136
869.468	129
869.518	149
869.569	133
869.62	141
869.67	141
869.721	141
869.771	138
869.822	147
869.873	129
869.923	133
869.974	141
870.025	136
870.075	137
870.126	132
870.176	141
870.227	145
870.278	137
870.328	131
870.379	141
870.43	143
870.48	141
870.531	138
870.581	133
870.632	145
870.683	130
870.733	142
870.784	142
870.834	132
870.885	136
870.936	133
870.986	131
871.037	146
871.087	133
871.138	146
871.189	135
871.239	128
871.29	135
871.34	134
871.391	134
871.442	133
871.492	122
871.543	124
871.593	134
871.644	136
871.695	132
871.745	138
871.796	136
871.846	132
871.897	122
871.948	142
871.998	142
872.049	134
872.099	127
872.15	130
872.201	135
872.251	137
872.302	126
872.352	130
872.403	137
872.453	137
872.504	140
872.555	131
872.605	139
872.656	132
872.706	133
872.757	130
872.808	126
872.858	135
872.909	127
872.959	120
873.01	131
873.06	132
873.111	122
873.162	114
873.212	143
873.263	132
873.313	125
873.364	123
873.415	124
873.465	126
873.516	123
873.566	125
873.617	126
873.667	127
873.718	140
873.769	126
873.819	127
873.87	118
873.92	127
873.971	123
874.021	136
874.072	125
874.123	129
874.173	133
874.224	123
874.274	128
874.325	126
874.375	129
874.426	133
874.477	126
874.527	128
874.578	121
874.628	134
874.679	129
874.729	123
874.78	124
874.83	128
874.881	131
874.932	127
874.982	121
875.033	132
875.083	126
875.134	124
875.184	119
875.235	125
875.285	126
875.336	123
875.387	129
875.437	120
875.488	134
875.538	137
875.589	115
875.639	128
875.69	129
875.74	127
875.791	112
875.841	135
875.892	126
875.943	132
875.993	119
876.044	134
876.094	124
876.145	132
876.195	110
876.246	125
876.296	126
876.347	126
876.397	116
876.448	128
876.499	114
876.549	124
876.6	118
876.65	133
876.701	116
876.751	131
876.802	117
876.852	126
876.903	120
876.953	127
877.004	121
877.054	126
877.105	133
877.155	127
877.206	113
877.257	138
877.307	118
877.358	121
877.408	111
877.459	126
877.509	126
877.56	121
877.61	119
877.661	115
877.711	129
877.762	127
877.812	119
877.863	121
877.913	125
877.964	124
878.014	119
878.065	113
878.115	118
878.166	117
878.216	128
878.267	119
878.318	129
878.368	118
878.419	111
878.469	113
878.52	114
878.57	120
878.621	113
878.671	124
878.722	114
878.772	114
878.823	113
878.873	115
878.924	117
878.974	114
879.025	110
879.075	124
879.126	129
879.176	116
879.227	112
879.277	119
879.328	122
879.378	121
879.429	122
879.479	116
879.53	114
879.58	120
879.631	103
879.681	122
879.732	121
879.782	121
879.833	113
879.883	114
879.934	120
879.984	116
880.035	115
880.085	107
880.136	112
880.186	116
880.237	114
880.287	115
880.338	121
880.388	122
880.439	113
880.489	115
880.54	114
880.59	119
880.641	117
880.691	109
880.742	128
880.792	117
880.842	121
880.893	124
880.943	118
880.994	123
881.044	108
881.095	113
881.145	117
881.196	113
881.246	117
881.297	103
881.347	109
881.398	116
881.448	119
881.499	112
881.549	111
881.6	111
881.65	113
881.701	119
881.751	128
881.802	108
881.852	117
881.902	110
881.953	105
882.003	112
882.054	111
882.104	110
882.155	113
882.205	107
882.256	112
882.306	116
882.357	121
882.407	120
882.458	124
882.508	116
882.559	116
882.609	119
882.659	106
882.71	121
882.76	116
882.811	108
882.861	108
882.912	102
882.962	109
883.013	111
883.063	95
883.114	104
883.164	114
883.214	109
883.265	104
883.315	110
883.366	116
883.416	108
883.467	104
883.517	111
883.568	111
883.618	122
883.669	115
883.719	105
883.769	116
883.82	111
883.87	99
883.921	130
883.971	108
884.022	106
884.072	106
884.123	96
884.173	107
884.223	105
884.274	102
884.324	98
884.375	107
884.425	112
884.476	107
884.526	103
884.577	109
884.627	109
884.677	108
884.728	114
884.778	111
884.829	111
884.879	115
884.93	101
884.98	105
885.03	110
885.081	100
885.131	103
885.182	106
885.232	107
885.283	106
885.333	106
885.383	103
885.434	104
885.484	112
885.535	108
885.585	112
885.635	105
885.686	104
885.736	97
885.787	114
885.837	102
885.888	103
885.938	100
885.988	93
886.039	111
886.089	111
886.14	97
886.19	107
886.241	100
886.291	114
886.341	108
886.392	114
886.442	110
886.493	99
886.543	102
886.593	113
886.644	104
886.694	108
886.745	96
886.795	118
886.845	102
886.896	105
886.946	98
886.997	107
887.047	105
887.097	104
887.148	102
887.198	100
887.249	107
887.299	104
887.349	100
887.4	103
887.45	109
887.501	104
887.551	96
887.602	96
887.652	95
887.702	99
887.753	97
887.803	104
887.853	100
887.904	97
887.954	100
888.005	97
888.055	98
888.105	106
888.156	101
888.206	105
888.257	107
888.307	100
888.357	92
888.408	98
888.458	99
888.509	102
888.559	99
888.609	102
888.66	106
888.71	101
888.76	90
888.811	96
888.861	100
888.912	102
888.962	92
889.012	96
889.063	96
889.113	95
889.163	93
889.214	97
889.264	95
889.315	104
889.365	90
889.415	103
889.466	108
889.516	100
889.566	94
889.617	99
889.667	95
889.718	102
889.768	91
889.818	97
889.869	101
889.919	103
889.969	88
890.02	95
890.07	113
890.12	103
890.171	98
890.221	91
890.272	95
890.322	103
890.372	89
890.423	93
890.473	102
890.523	94
890.574	90
890.624	92
890.674	102
890.725	101
890.775	89
890.826	95
890.876	92
890.926	94
890.977	87
891.027	93
891.077	99
891.128	98
891.178	91
891.228	93
891.279	93
891.329	100
891.379	93
891.43	97
891.48	103
891.53	87
891.581	87
891.631	90
891.681	92
891.732	97
891.782	97
891.832	97
891.883	87
891.933	95
891.983	92
892.034	86
892.084	101
892.134	90
892.185	90
892.235	92
892.286	97
892.336	97
892.386	95
892.437	99
892.487	94
892.537	87
892.587	92
892.638	94
892.688	97
892.738	100
892.789	95
892.839	98
892.889	93
892.94	92
892.99	91
893.04	97
893.091	96
893.141	83
893.191	87
893.242	88
893.292	95
893.342	87
893.393	88
893.443	95
893.493	101
893.544	95
893.594	98
893.644	87
893.695	96
893.745	88
893.795	80
893.846	94
893.896	95
893.946	88
893.996	94
894.047	87
894.097	98
894.147	98
894.198	93
894.248	85
894.298	81
894.349	91
894.399	88
894.449	89
894.5	93
894.55	99
894.6	84
894.65	92
894.701	92
894.751	91
894.801	82
894.852	89
894.902	89
894.952	86
895.003	96
895.053	92
895.103	94
895.153	80
895.204	86
895.254	83
895.304	84
895.355	94
895.405	80
895.455	84
895.505	96
895.556	90
895.606	83
895.656	82
895.707	84
895.757	74
895.807	78
895.858	76
895.908	87
895.958	88
896.008	85
896.059	83
896.109	86
896.159	80
896.21	79
896.26	78
896.31	84
896.36	93
896.411	93
896.461	82
896.511	85
896.561	81
896.612	78
896.662	86
896.712	87
896.763	85
896.813	83
896.863	82
896.913	91
896.964	81
897.014	78
897.064	89
897.115	87
897.165	88
897.215	89
897.265	92
897.316	82
897.366	95
897.416	77
897.466	79
897.517	76
897.567	81
897.617	85
897.667	76
897.718	83
897.768	79
897.818	86
897.868	79
897.919	87
897.969	84
898.019	94
898.069	88
898.12	80
898.17	83
898.22	83
898.27	85
898.321	84
898.371	85
898.421	86
898.471	76
898.522	91
898.572	80
898.622	84
898.672	80
898.723	82
898.773	83
898.823	78
898.873	78
898.924	80
898.974	88
899.024	79
899.074	85
899.125	83.5
899.175	82
899.225	79
899.275	76
899.326	89
899.376	79
899.426	79
899.476	74
899.527	73
899.577	77
899.627	80
899.677	78
899.728	78
899.778	86
899.828	85
899.878	78
899.928	81
899.979	85
